TITLE	
DATA TYPE	INFRARED SPECTRUM
ORIGIN	JASCO
OWNER	
DATE	25/10/20
TIME	15:31:38
SPECTROMETER/DATA SYSTEM	
LOCALE	1033
RESOLUTION	
DELTAX	0.964233
XUNITS	1/CM
YUNITS	TRANSMITTANCE
FIRSTX	  649.8934
LASTX	 4000.6047
NPOINTS	    3476
FIRSTY	    90.93753
MAXY	   100.05249
MINY	    13.18448
XYDATA
649.8934	90.9375
650.8576	90.9094
651.8218	90.968
652.7861	90.9917
653.7503	90.8588
654.7145	90.5185
655.6788	90.0214
656.6430	89.4818
657.6072	88.9962
658.5715	88.5835
659.5357	88.1892
660.4999	87.7418
661.4642	87.2084
662.4284	86.5986
663.3926	85.9245
664.3569	85.1698
665.3211	84.3003
666.2853	83.2988
667.2496	82.171
668.2138	80.8611
669.1780	79.1484
670.1423	76.7465
671.1065	73.5497
672.0707	69.7839
673.0350	66.0449
673.9992	63.2339
674.9634	62.269
675.9277	63.5796
676.8919	66.7251
677.8561	70.529
678.8204	73.6449
679.7846	75.1016
680.7488	74.5389
681.7131	72.1517
682.6773	68.4887
683.6415	64.2566
684.6058	60.2064
685.5700	57.0666
686.5342	55.4305
687.4985	55.5786
688.4627	57.3373
689.4269	60.1066
690.3912	63.0738
691.3554	65.4962
692.3196	66.9006
693.2839	67.1251
694.2481	66.2275
695.2123	64.3428
696.1766	61.5709
697.1408	57.9362
698.1050	53.4193
699.0693	48.0314
700.0335	41.8964
700.9977	35.3062
701.9620	28.7231
702.9262	22.7199
703.8904	17.869
704.8547	14.6165
705.8189	13.1845
706.7831	13.536
707.7474	15.413
708.7116	18.43
709.6758	22.1845
710.6401	26.3418
711.6043	30.6711
712.5685	35.0369
713.5328	39.3682
714.4970	43.6311
715.4612	47.8153
716.4255	51.9318
717.3897	56.0094
718.3539	60.0799
719.3182	64.1525
720.2824	68.1908
721.2466	72.1083
722.2109	75.7906
723.1751	79.1328
724.1393	82.0709
725.1036	84.5914
726.0678	86.7178
727.0320	88.487
727.9963	89.9311
728.9605	91.0737
729.9247	91.9391
730.8890	92.5664
731.8532	93.0162
732.8174	93.3622
733.7817	93.6712
734.7459	93.9835
735.7101	94.3064
736.6744	94.626
737.6386	94.9278
738.6028	95.2118
739.5671	95.4903
740.5313	95.7718
741.4955	96.0447
742.4598	96.2783
743.4240	96.4405
744.3882	96.521
745.3525	96.5428
746.3167	96.5512
747.2809	96.5893
748.2452	96.6755
749.2094	96.7977
750.1736	96.9245
751.1379	97.0262
752.1021	97.0901
753.0663	97.1246
754.0306	97.1509
754.9948	97.1905
755.9590	97.2552
756.9233	97.3446
757.8875	97.4494
758.8517	97.5582
759.8160	97.6623
760.7802	97.7561
761.7444	97.8346
762.7087	97.892
763.6729	97.9238
764.6371	97.9329
765.6014	97.933
766.5656	97.9442
767.5298	97.9816
768.4941	98.0438
769.4583	98.1113
770.4225	98.1578
771.3868	98.1682
772.3510	98.1493
773.3152	98.1261
774.2795	98.1244
775.2437	98.1528
776.2079	98.196
777.1722	98.2249
778.1364	98.2157
779.1006	98.1652
780.0649	98.0919
781.0291	98.0233
781.9933	97.9785
782.9576	97.9579
783.9218	97.9459
784.8860	97.923
785.8503	97.8799
786.8145	97.8226
787.7787	97.7678
788.7430	97.7304
789.7072	97.7137
790.6714	97.7068
791.6357	97.6905
792.5999	97.6454
793.5641	97.5581
794.5284	97.4223
795.4926	97.2361
796.4568	97.0004
797.4211	96.7173
798.3853	96.3868
799.3495	96.0024
800.3138	95.5474
801.2780	94.9993
802.2422	94.3454
803.2065	93.6024
804.1707	92.8298
805.1349	92.1239
806.0992	91.5924
807.0634	91.3184
808.0276	91.3293
808.9919	91.585
809.9561	91.9887
810.9203	92.4166
811.8846	92.7512
812.8488	92.9051
813.8130	92.8224
814.7773	92.4594
815.7415	91.7636
816.7057	90.6726
817.6700	89.15
818.6342	87.2494
819.5984	85.1695
820.5627	83.2556
821.5269	81.9234
822.4911	81.525
823.4554	82.2171
824.4196	83.895
825.3839	86.2291
826.3481	88.7844
827.3123	91.1657
828.2766	93.1201
829.2408	94.5639
830.2050	95.5441
831.1693	96.1719
832.1335	96.5657
833.0977	96.8202
834.0620	96.9975
835.0262	97.1313
835.9904	97.2344
836.9547	97.307
837.9189	97.3451
838.8831	97.3476
839.8474	97.3198
840.8116	97.2722
841.7758	97.2168
842.7401	97.163
843.7043	97.1151
844.6685	97.0717
845.6328	97.0277
846.5970	96.9773
847.5612	96.9193
848.5255	96.8606
849.4897	96.8164
850.4539	96.8043
851.4182	96.836
852.3824	96.9113
853.3466	97.0184
854.3109	97.1411
855.2751	97.2672
856.2393	97.3916
857.2036	97.5144
858.1678	97.6336
859.1320	97.742
860.0963	97.8282
861.0605	97.8833
862.0247	97.9069
862.9890	97.9101
863.9532	97.9114
864.9174	97.9293
865.8817	97.9744
866.8459	98.0437
867.8101	98.1202
868.7744	98.1793
869.7386	98.1997
870.7028	98.175
871.6671	98.1192
872.6313	98.062
873.5955	98.0347
874.5598	98.0541
875.5240	98.1139
876.4882	98.1876
877.4525	98.2442
878.4167	98.263
879.3809	98.243
880.3452	98.1991
881.3094	98.1515
882.2736	98.1153
883.2379	98.0962
884.2021	98.0933
885.1663	98.1031
886.1306	98.1209
887.0948	98.1402
888.0590	98.1513
889.0233	98.1439
889.9875	98.1128
890.9517	98.0622
891.9160	98.0049
892.8802	97.9565
893.8444	97.9273
894.8087	97.9175
895.7729	97.9186
896.7371	97.9183
897.7014	97.9061
898.6656	97.8758
899.6298	97.8259
900.5941	97.7595
901.5583	97.6841
902.5225	97.6103
903.4868	97.549
904.4510	97.5065
905.4152	97.4806
906.3795	97.4607
907.3438	97.4335
908.3080	97.3899
909.2722	97.3308
910.2365	97.266
911.2007	97.2093
912.1649	97.1707
913.1292	97.1512
914.0934	97.1421
915.0576	97.1277
916.0219	97.0918
916.9861	97.023
917.9503	96.9192
918.9146	96.7877
919.8788	96.642
920.8430	96.4952
921.8073	96.355
922.7715	96.2203
923.7357	96.0828
924.7000	95.9303
925.6642	95.7488
926.6284	95.5234
927.5927	95.2381
928.5569	94.8762
929.5211	94.426
930.4854	93.8875
931.4496	93.2797
932.4138	92.6425
933.3781	92.0331
934.3423	91.5162
935.3065	91.151
936.2708	90.9782
937.2350	91.0108
938.1992	91.2318
939.1635	91.5998
940.1277	92.06
941.0919	92.5558
942.0562	93.0369
943.0204	93.4622
943.9846	93.8011
944.9489	94.0347
945.9131	94.1585
946.8773	94.1828
947.8416	94.128
948.8058	94.0137
949.7700	93.8473
950.7343	93.6191
951.6985	93.3059
952.6627	92.882
953.6270	92.3289
954.5912	91.6378
955.5554	90.8052
956.5197	89.8268
957.4839	88.6977
958.4481	87.4217
959.4124	86.0244
960.3766	84.563
961.3408	83.1249
962.3051	81.8179
963.2693	80.7528
964.2335	80.028
965.1978	79.7165
966.1620	79.8577
967.1262	80.452
968.0905	81.4575
969.0547	82.7914
970.0189	84.3401
970.9832	85.9765
971.9474	87.5813
972.9116	89.0627
973.8759	90.3648
974.8401	91.4666
975.8043	92.3741
976.7686	93.1089
977.7328	93.7
978.6970	94.1762
979.6613	94.5631
980.6255	94.8801
981.5897	95.1407
982.5540	95.3522
983.5182	95.517
984.4824	95.6346
985.4467	95.7044
986.4109	95.7283
987.3751	95.7134
988.3394	95.6714
989.3036	95.6161
990.2678	95.5587
991.2321	95.5062
992.1963	95.4621
993.1605	95.4285
994.1248	95.4044
995.0890	95.3797
996.0532	95.3276
997.0175	95.2066
997.9817	94.9768
998.9459	94.6279
999.9102	94.2014
1000.8744	93.7902
1001.8386	93.5065
1002.8029	93.4328
1003.7671	93.5811
1004.7313	93.885
1005.6956	94.2289
1006.6598	94.4993
1007.6240	94.6268
1008.5883	94.601
1009.5525	94.4538
1010.5167	94.2275
1011.4810	93.9479
1012.4452	93.6114
1013.4094	93.1903
1014.3737	92.6479
1015.3379	91.9585
1016.3021	91.1191
1017.2664	90.1417
1018.2306	89.0171
1019.1948	87.6666
1020.1591	85.917
1021.1233	83.5478
1022.0875	80.4236
1023.0518	76.6626
1024.0160	72.7413
1024.9802	69.4398
1025.9445	67.608
1026.9087	67.8434
1027.8729	70.2335
1028.8372	74.3012
1029.8014	79.1849
1030.7656	83.9636
1031.7299	87.9625
1032.6941	90.9008
1033.6583	92.8478
1034.6226	94.0587
1035.5868	94.8038
1036.5510	95.2724
1037.5153	95.5633
1038.4795	95.7238
1039.4437	95.7865
1040.4080	95.7837
1041.3722	95.742
1042.3364	95.6773
1043.3007	95.5968
1044.2649	95.5059
1045.2291	95.4101
1046.1934	95.3115
1047.1576	95.2045
1048.1218	95.0765
1049.0861	94.9157
1050.0503	94.7187
1051.0145	94.4919
1051.9788	94.244
1052.9430	93.9763
1053.9072	93.6765
1054.8715	93.3226
1055.8357	92.8915
1056.7999	92.3646
1057.7642	91.7257
1058.7284	90.9521
1059.6926	90.0103
1060.6569	88.8582
1061.6211	87.4528
1062.5853	85.7499
1063.5496	83.6959
1064.5138	81.224
1065.4780	78.2836
1066.4423	74.9145
1067.4065	71.3401
1068.3707	68.015
1069.3350	65.5637
1070.2992	64.5989
1071.2634	65.4837
1072.2277	68.1564
1073.1919	72.1144
1074.1561	76.5804
1075.1204	80.7699
1076.0846	84.1317
1077.0488	86.456
1078.0131	87.8279
1078.9773	88.4868
1079.9415	88.6803
1080.9058	88.5808
1081.8700	88.2747
1082.8342	87.793
1083.7985	87.1459
1084.7627	86.3392
1085.7269	85.3741
1086.6912	84.2421
1087.6554	82.9228
1088.6196	81.3869
1089.5839	79.6019
1090.5481	77.5389
1091.5123	75.1804
1092.4766	72.5292
1093.4408	69.6195
1094.4050	66.528
1095.3693	63.381
1096.3335	60.3495
1097.2977	57.6214
1098.2620	55.3512
1099.2262	53.5991
1100.1904	52.2877
1101.1547	51.207
1102.1189	50.0754
1103.0831	48.6427
1104.0474	46.7916
1105.0116	44.5973
1105.9758	42.3182
1106.9401	40.3239
1107.9043	38.991
1108.8685	38.6087
1109.8328	39.3251
1110.7970	41.1404
1111.7612	43.9368
1112.7255	47.5208
1113.6897	51.6626
1114.6539	56.123
1115.6182	60.6725
1116.5824	65.1054
1117.5466	69.2524
1118.5109	72.9918
1119.4751	76.2552
1120.4393	79.0257
1121.4036	81.3285
1122.3678	83.2151
1123.3320	84.7481
1124.2963	85.9879
1125.2605	86.9866
1126.2247	87.7862
1127.1890	88.4207
1128.1532	88.9193
1129.1174	89.3078
1130.0817	89.6101
1131.0459	89.8493
1132.0101	90.0475
1132.9744	90.226
1133.9386	90.4028
1134.9028	90.5892
1135.8671	90.7857
1136.8313	90.9819
1137.7955	91.1602
1138.7598	91.3029
1139.7240	91.3991
1140.6882	91.4481
1141.6525	91.4575
1142.6167	91.437
1143.5809	91.3926
1144.5452	91.324
1145.5094	91.2259
1146.4736	91.0921
1147.4379	90.9198
1148.4021	90.7117
1149.3663	90.4744
1150.3306	90.2141
1151.2948	89.9323
1152.2590	89.6243
1153.2233	89.2822
1154.1875	88.9033
1155.1517	88.4984
1156.1160	88.0968
1157.0802	87.7417
1158.0444	87.4772
1159.0087	87.3324
1159.9729	87.3087
1160.9371	87.3773
1161.9014	87.4859
1162.8656	87.5711
1163.8298	87.5711
1164.7941	87.433
1165.7583	87.1129
1166.7225	86.5701
1167.6868	85.757
1168.6510	84.6135
1169.6152	83.0759
1170.5795	81.1063
1171.5437	78.7413
1172.5079	76.1385
1173.4722	73.5904
1174.4364	71.4819
1175.4006	70.1913
1176.3649	69.9692
1177.3291	70.8486
1178.2933	72.6268
1179.2576	74.9265
1180.2218	77.3093
1181.1860	79.3924
1182.1503	80.9245
1183.1145	81.8014
1184.0787	82.0348
1185.0430	81.704
1186.0072	80.9213
1186.9714	79.8178
1187.9357	78.5447
1188.8999	77.2741
1189.8641	76.1899
1190.8284	75.4672
1191.7926	75.2441
1192.7568	75.5959
1193.7211	76.5187
1194.6853	77.9305
1195.6495	79.6895
1196.6138	81.626
1197.5780	83.5775
1198.5422	85.4159
1199.5065	87.0603
1200.4707	88.4742
1201.4349	89.6535
1202.3992	90.6124
1203.3634	91.3745
1204.3276	91.9676
1205.2919	92.4221
1206.2561	92.7688
1207.2203	93.0361
1208.1846	93.2467
1209.1488	93.4161
1210.1130	93.5525
1211.0773	93.6589
1212.0415	93.7354
1213.0057	93.7806
1213.9700	93.7936
1214.9342	93.7745
1215.8984	93.7246
1216.8627	93.646
1217.8269	93.5402
1218.7911	93.4072
1219.7554	93.2458
1220.7196	93.0547
1221.6838	92.8337
1222.6481	92.5847
1223.6123	92.3107
1224.5765	92.0135
1225.5408	91.6918
1226.5050	91.341
1227.4692	90.9544
1228.4335	90.525
1229.3977	90.0472
1230.3619	89.5167
1231.3262	88.9285
1232.2904	88.276
1233.2546	87.5492
1234.2189	86.7356
1235.1831	85.8222
1236.1473	84.7985
1237.1116	83.658
1238.0758	82.3982
1239.0400	81.0187
1240.0043	79.5195
1240.9685	77.9009
1241.9327	76.1657
1242.8970	74.3225
1243.8612	72.3876
1244.8254	70.3856
1245.7897	68.348
1246.7539	66.3119
1247.7181	64.3188
1248.6824	62.4113
1249.6466	60.6282
1250.6108	58.9965
1251.5751	57.5246
1252.5393	56.2
1253.5035	54.9915
1254.4678	53.8554
1255.4320	52.7416
1256.3962	51.5975
1257.3605	50.3697
1258.3247	49.0052
1259.2889	47.4541
1260.2532	45.6735
1261.2174	43.6319
1262.1816	41.3144
1263.1459	38.7284
1264.1101	35.9119
1265.0743	32.9408
1266.0386	29.9306
1267.0028	27.029
1267.9670	24.3976
1268.9313	22.191
1269.8955	20.535
1270.8597	19.5125
1271.8240	19.1552
1272.7882	19.4456
1273.7524	20.328
1274.7167	21.7242
1275.6809	23.5491
1276.6451	25.7219
1277.6094	28.1714
1278.5736	30.8372
1279.5378	33.6694
1280.5021	36.6263
1281.4663	39.6745
1282.4305	42.7893
1283.3948	45.9558
1284.3590	49.166
1285.3232	52.4098
1286.2875	55.659
1287.2517	58.8545
1288.2159	61.9089
1289.1802	64.7287
1290.1444	67.2493
1291.1086	69.4626
1292.0729	71.4195
1293.0371	73.2061
1294.0013	74.9053
1294.9656	76.5641
1295.9298	78.1812
1296.8940	79.7187
1297.8583	81.1285
1298.8225	82.3772
1299.7867	83.4571
1300.7510	84.3783
1301.7152	85.1522
1302.6794	85.7762
1303.6437	86.2308
1304.6079	86.4858
1305.5721	86.5082
1306.5364	86.2565
1307.5006	85.663
1308.4648	84.6211
1309.4291	83.0075
1310.3933	80.7552
1311.3575	77.9605
1312.3218	74.9604
1313.2860	72.3063
1314.2502	70.612
1315.2145	70.3377
1316.1787	71.6208
1317.1429	74.2241
1318.1072	77.618
1319.0714	81.1646
1320.0356	84.3367
1320.9999	86.8643
1321.9641	88.7406
1322.9283	90.1138
1323.8926	91.1583
1324.8568	91.9993
1325.8210	92.7009
1326.7853	93.292
1327.7495	93.7933
1328.7137	94.227
1329.6780	94.6131
1330.6422	94.9624
1331.6064	95.2783
1332.5707	95.5611
1333.5349	95.8136
1334.4991	96.0394
1335.4634	96.2405
1336.4276	96.4147
1337.3918	96.5564
1338.3561	96.6612
1339.3203	96.7314
1340.2845	96.7769
1341.2488	96.8118
1342.2130	96.8474
1343.1772	96.8889
1344.1415	96.9361
1345.1057	96.9862
1346.0699	97.0364
1347.0342	97.0862
1347.9984	97.1385
1348.9626	97.1978
1349.9269	97.2672
1350.8911	97.3465
1351.8553	97.4319
1352.8196	97.5175
1353.7838	97.5974
1354.7480	97.667
1355.7123	97.7243
1356.6765	97.7696
1357.6407	97.8051
1358.6050	97.8339
1359.5692	97.8587
1360.5334	97.8817
1361.4977	97.9041
1362.4619	97.9261
1363.4261	97.9475
1364.3904	97.9684
1365.3546	97.9905
1366.3188	98.0168
1367.2831	98.0506
1368.2473	98.0934
1369.2115	98.1434
1370.1758	98.1946
1371.1400	98.2382
1372.1042	98.2656
1373.0685	98.2716
1374.0327	98.2572
1374.9969	98.2296
1375.9612	98.1986
1376.9254	98.171
1377.8896	98.1488
1378.8539	98.131
1379.8181	98.1162
1380.7823	98.1042
1381.7466	98.0947
1382.7108	98.0854
1383.6750	98.0711
1384.6393	98.0444
1385.6035	97.9988
1386.5677	97.9338
1387.5320	97.8582
1388.4962	97.7844
1389.4604	97.7193
1390.4247	97.6601
1391.3889	97.5994
1392.3531	97.5312
1393.3174	97.4569
1394.2816	97.3855
1395.2458	97.329
1396.2101	97.2934
1397.1743	97.2748
1398.1385	97.2642
1399.1028	97.2552
1400.0670	97.2473
1401.0313	97.2429
1401.9955	97.2426
1402.9597	97.2428
1403.9240	97.2362
1404.8882	97.2152
1405.8524	97.1771
1406.8167	97.1267
1407.7809	97.0727
1408.7451	97.0207
1409.7094	96.9686
1410.6736	96.9076
1411.6378	96.8283
1412.6021	96.7282
1413.5663	96.6121
1414.5305	96.4812
1415.4948	96.3211
1416.4590	96.0945
1417.4232	95.7544
1418.3875	95.2798
1419.3517	94.7026
1420.3159	94.0701
1421.2802	93.3806
1422.2444	92.5756
1423.2086	91.589
1424.1729	90.3911
1425.1371	88.9884
1426.1013	87.3735
1427.0656	85.4706
1428.0298	83.1468
1428.9940	80.3222
1429.9583	77.1127
1430.9225	73.8535
1431.8867	70.9509
1432.8510	68.7305
1433.8152	67.4388
1434.7794	67.3159
1435.7437	68.5318
1436.7079	70.9137
1437.6721	73.8232
1438.6364	76.5397
1439.6006	78.7035
1440.5648	80.3092
1441.5291	81.4715
1442.4933	82.2766
1443.4575	82.7493
1444.4218	82.8644
1445.3860	82.555
1446.3502	81.7246
1447.3145	80.3097
1448.2787	78.4045
1449.2429	76.3404
1450.2072	74.5857
1451.1714	73.5319
1452.1356	73.3732
1453.0999	74.1538
1454.0641	75.8842
1455.0283	78.5881
1455.9926	82.1335
1456.9568	85.8696
1457.9210	88.7924
1458.8853	90.4987
1459.8495	91.3676
1460.8137	91.8908
1461.7780	92.3502
1462.7422	92.8607
1463.7064	93.4437
1464.6707	94.0559
1465.6349	94.6181
1466.5991	95.0751
1467.5634	95.4285
1468.5276	95.7148
1469.4918	95.9723
1470.4561	96.2266
1471.4203	96.4855
1472.3845	96.7361
1473.3488	96.9525
1474.3130	97.1174
1475.2772	97.235
1476.2415	97.319
1477.2057	97.3802
1478.1699	97.4245
1479.1342	97.4549
1480.0984	97.4722
1481.0626	97.4749
1482.0269	97.4602
1482.9911	97.4273
1483.9553	97.3782
1484.9196	97.3122
1485.8838	97.2115
1486.8480	97.0265
1487.8123	96.6802
1488.7765	96.1257
1489.7407	95.4338
1490.7050	94.7835
1491.6692	94.3349
1492.6334	94.1569
1493.5977	94.256
1494.5619	94.6155
1495.5261	95.1968
1496.4904	95.9108
1497.4546	96.6107
1498.4188	97.1617
1499.3831	97.5301
1500.3473	97.7704
1501.3115	97.9481
1502.2758	98.0987
1503.2400	98.2305
1504.2042	98.3375
1505.1685	98.4085
1506.1327	98.4363
1507.0969	98.4326
1508.0612	98.4253
1509.0254	98.4289
1509.9896	98.4383
1510.9539	98.4447
1511.9181	98.4432
1512.8823	98.431
1513.8466	98.4074
1514.8108	98.3745
1515.7750	98.3378
1516.7393	98.3046
1517.7035	98.2798
1518.6677	98.2644
1519.6320	98.2563
1520.5962	98.2539
1521.5604	98.2578
1522.5247	98.2688
1523.4889	98.286
1524.4531	98.3069
1525.4174	98.3285
1526.3816	98.3494
1527.3458	98.3692
1528.3101	98.3883
1529.2743	98.4056
1530.2385	98.4195
1531.2028	98.4281
1532.1670	98.4316
1533.1312	98.4349
1534.0955	98.4455
1535.0597	98.4685
1536.0239	98.5035
1536.9882	98.5458
1537.9524	98.5866
1538.9166	98.6108
1539.8809	98.6012
1540.8451	98.5579
1541.8093	98.51
1542.7736	98.4838
1543.7378	98.4806
1544.7020	98.4893
1545.6663	98.4993
1546.6305	98.5041
1547.5947	98.5011
1548.5590	98.4904
1549.5232	98.4733
1550.4874	98.4518
1551.4517	98.4284
1552.4159	98.4058
1553.3801	98.3853
1554.3444	98.3644
1555.3086	98.3352
1556.2728	98.2826
1557.2371	98.1891
1558.2013	98.0607
1559.1655	97.9511
1560.1298	97.9061
1561.0940	97.9091
1562.0582	97.9238
1563.0225	97.9285
1563.9867	97.9162
1564.9509	97.8866
1565.9152	97.8404
1566.8794	97.7742
1567.8436	97.6799
1568.8079	97.5527
1569.7721	97.4022
1570.7363	97.2478
1571.7006	97.0981
1572.6648	96.9331
1573.6290	96.7002
1574.5933	96.3226
1575.5575	95.7438
1576.5217	95.0068
1577.4860	94.263
1578.4502	93.6485
1579.4144	93.2004
1580.3787	92.8994
1581.3429	92.7294
1582.3071	92.6919
1583.2714	92.7883
1584.2356	93.0004
1585.1998	93.2925
1586.1641	93.6303
1587.1283	93.9919
1588.0925	94.3598
1589.0568	94.7075
1590.0210	94.9963
1590.9852	95.1877
1591.9495	95.2516
1592.9137	95.1545
1593.8779	94.8325
1594.8422	94.1768
1595.8064	93.0655
1596.7706	91.443
1597.7349	89.4077
1598.6991	87.2549
1599.6633	85.4398
1600.6276	84.4519
1601.5918	84.6264
1602.5560	85.9728
1603.5203	88.1407
1604.4845	90.5748
1605.4487	92.7598
1606.4130	94.3922
1607.3772	95.4106
1608.3414	95.9278
1609.3057	96.1296
1610.2699	96.1832
1611.2341	96.1886
1612.1984	96.184
1613.1626	96.178
1614.1268	96.174
1615.0911	96.1788
1616.0553	96.1984
1617.0195	96.2322
1617.9838	96.2737
1618.9480	96.3193
1619.9122	96.3717
1620.8765	96.4353
1621.8407	96.5104
1622.8049	96.5893
1623.7692	96.6569
1624.7334	96.6981
1625.6976	96.7045
1626.6619	96.6758
1627.6261	96.6174
1628.5903	96.5406
1629.5546	96.46
1630.5188	96.3874
1631.4830	96.3255
1632.4473	96.2661
1633.4115	96.1927
1634.3757	96.0881
1635.3400	95.9523
1636.3042	95.8167
1637.2684	95.7184
1638.2327	95.6646
1639.1969	95.6392
1640.1611	95.624
1641.1254	95.6077
1642.0896	95.5851
1643.0538	95.5556
1644.0181	95.5238
1644.9823	95.502
1645.9465	95.5079
1646.9108	95.5506
1647.8750	95.6188
1648.8392	95.6921
1649.8035	95.7581
1650.7677	95.8141
1651.7319	95.8617
1652.6962	95.9048
1653.6604	95.9487
1654.6246	95.9968
1655.5889	96.0485
1656.5531	96.1018
1657.5173	96.1551
1658.4816	96.2062
1659.4458	96.2514
1660.4100	96.2854
1661.3743	96.3044
1662.3385	96.3096
1663.3027	96.3073
1664.2670	96.3026
1665.2312	96.2938
1666.1954	96.2715
1667.1597	96.2215
1668.1239	96.1297
1669.0881	95.9926
1670.0524	95.8236
1671.0166	95.6407
1671.9808	95.4447
1672.9451	95.2152
1673.9094	94.9257
1674.8735	94.5678
1675.8379	94.1688
1676.8020	93.7823
1677.7664	93.4506
1678.7305	93.1822
1679.6948	92.9608
1680.6589	92.7634
1681.6233	92.572
1682.5874	92.3835
1683.5518	92.2195
1684.5159	92.1117
1685.4802	92.0619
1686.4443	92.0382
1687.4087	92.0076
1688.3728	91.953
1689.3372	91.8706
1690.3013	91.7598
1691.2656	91.6126
1692.2297	91.4065
1693.1941	91.1089
1694.1582	90.6932
1695.1226	90.1571
1696.0867	89.5184
1697.0510	88.773
1698.0151	87.8521
1698.9795	86.6624
1699.9436	85.2075
1700.9080	83.6265
1701.8721	82.0545
1702.8364	80.4733
1703.8005	78.709
1704.7649	76.54
1705.7290	73.8304
1706.6934	70.6164
1707.6575	67.0634
1708.6218	63.3107
1709.5859	59.3724
1710.5503	55.1894
1711.5144	50.7426
1712.4788	46.1149
1713.4429	41.4773
1714.4072	37.0493
1715.3713	33.1099
1716.3357	30.0446
1717.2998	28.232
1718.2642	27.7304
1719.2283	28.229
1720.1926	29.3795
1721.1567	31.0122
1722.1211	33.0974
1723.0852	35.6334
1724.0496	38.5783
1725.0137	41.8485
1725.9780	45.3577
1726.9421	49.0381
1727.9065	52.8221
1728.8706	56.6321
1729.8350	60.4253
1730.7991	64.2723
1731.7634	68.3678
1732.7275	72.839
1733.6919	77.4038
1734.6560	81.393
1735.6204	84.3393
1736.5845	86.3155
1737.5488	87.6894
1738.5129	88.8096
1739.4773	89.8711
1740.4414	90.902
1741.4058	91.8279
1742.3699	92.5847
1743.3342	93.1882
1744.2983	93.7073
1745.2627	94.2
1746.2268	94.6822
1747.1912	95.1376
1748.1553	95.5457
1749.1196	95.8996
1750.0837	96.2039
1751.0481	96.4607
1752.0122	96.6682
1752.9766	96.8302
1753.9407	96.9608
1754.9050	97.0772
1755.8691	97.1906
1756.8335	97.302
1757.7976	97.4053
1758.7620	97.4967
1759.7261	97.5784
1760.6904	97.655
1761.6545	97.7268
1762.6189	97.7887
1763.5830	97.8364
1764.5474	97.871
1765.5115	97.8981
1766.4758	97.922
1767.4399	97.9414
1768.4043	97.9499
1769.3684	97.9393
1770.3328	97.9058
1771.2969	97.8549
1772.2612	97.8019
1773.2253	97.7633
1774.1897	97.7465
1775.1538	97.7478
1776.1182	97.7575
1777.0823	97.7652
1778.0466	97.762
1779.0107	97.7423
1779.9751	97.7053
1780.9392	97.6551
1781.9036	97.5986
1782.8677	97.543
1783.8320	97.4957
1784.7961	97.4648
1785.7605	97.4574
1786.7246	97.4769
1787.6890	97.5219
1788.6531	97.5889
1789.6174	97.6745
1790.5815	97.7757
1791.5459	97.8881
1792.5100	98.0037
1793.4744	98.1139
1794.4385	98.2141
1795.4028	98.3047
1796.3669	98.3868
1797.3313	98.4598
1798.2954	98.5215
1799.2598	98.5696
1800.2239	98.6052
1801.1882	98.6328
1802.1523	98.6588
1803.1167	98.6876
1804.0808	98.7207
1805.0452	98.7572
1806.0093	98.7951
1806.9736	98.8311
1807.9377	98.8605
1808.9021	98.8782
1809.8662	98.8812
1810.8306	98.8707
1811.7947	98.852
1812.7590	98.8313
1813.7231	98.8117
1814.6875	98.7929
1815.6516	98.7726
1816.6160	98.7494
1817.5801	98.7244
1818.5444	98.7013
1819.5085	98.6843
1820.4729	98.6764
1821.4370	98.6796
1822.4014	98.6942
1823.3655	98.719
1824.3298	98.75
1825.2939	98.7807
1826.2583	98.8051
1827.2224	98.8199
1828.1868	98.8272
1829.1509	98.8336
1830.1152	98.8469
1831.0793	98.8718
1832.0437	98.9072
1833.0078	98.9492
1833.9722	98.9943
1834.9363	99.0417
1835.9006	99.0921
1836.8647	99.1461
1837.8291	99.202
1838.7932	99.256
1839.7576	99.3039
1840.7217	99.3415
1841.6860	99.3654
1842.6501	99.3733
1843.6145	99.3664
1844.5786	99.3515
1845.5430	99.3385
1846.5071	99.3346
1847.4714	99.3422
1848.4355	99.3593
1849.3999	99.3825
1850.3640	99.4086
1851.3284	99.4348
1852.2925	99.4592
1853.2568	99.4808
1854.2209	99.4996
1855.1853	99.5159
1856.1494	99.5308
1857.1138	99.5451
1858.0779	99.5593
1859.0422	99.5732
1860.0063	99.5863
1860.9707	99.5982
1861.9348	99.6092
1862.8992	99.6196
1863.8633	99.6286
1864.8276	99.6335
1865.7917	99.6305
1866.7561	99.6177
1867.7202	99.5982
1868.6846	99.5819
1869.6487	99.5799
1870.6130	99.5959
1871.5771	99.624
1872.5415	99.6537
1873.5056	99.6753
1874.4700	99.6834
1875.4341	99.6777
1876.3984	99.6623
1877.3625	99.6429
1878.3269	99.6236
1879.2910	99.6055
1880.2554	99.5882
1881.2195	99.5722
1882.1838	99.5595
1883.1479	99.553
1884.1123	99.5538
1885.0764	99.5595
1886.0408	99.5647
1887.0049	99.5627
1887.9692	99.5488
1888.9333	99.5218
1889.8977	99.4845
1890.8618	99.4408
1891.8262	99.3935
1892.7903	99.3445
1893.7546	99.2971
1894.7188	99.2578
1895.6831	99.2341
1896.6472	99.2308
1897.6116	99.2452
1898.5757	99.2674
1899.5400	99.2838
1900.5042	99.2833
1901.4685	99.2603
1902.4326	99.2152
1903.3970	99.1524
1904.3611	99.078
1905.3254	98.9984
1906.2896	98.9201
1907.2539	98.8502
1908.2180	98.7952
1909.1824	98.7578
1910.1465	98.7348
1911.1108	98.7184
1912.0750	98.7002
1913.0393	98.6754
1914.0034	98.6437
1914.9678	98.6086
1915.9319	98.5752
1916.8962	98.5481
1917.8604	98.5301
1918.8247	98.5215
1919.7888	98.5199
1920.7532	98.5212
1921.7173	98.5199
1922.6816	98.5099
1923.6458	98.4875
1924.6101	98.4535
1925.5742	98.4148
1926.5386	98.3822
1927.5027	98.3666
1928.4670	98.3748
1929.4312	98.4075
1930.3955	98.4587
1931.3596	98.5189
1932.3240	98.5793
1933.2881	98.6353
1934.2524	98.6872
1935.2166	98.7384
1936.1809	98.7928
1937.1450	98.8526
1938.1094	98.917
1939.0735	98.983
1940.0378	99.0455
1941.0020	99.1001
1941.9663	99.1459
1942.9304	99.1866
1943.8948	99.2296
1944.8589	99.2799
1945.8232	99.3356
1946.7874	99.388
1947.7517	99.4255
1948.7158	99.4403
1949.6802	99.4332
1950.6443	99.4134
1951.6086	99.3932
1952.5728	99.3808
1953.5371	99.3761
1954.5012	99.3715
1955.4656	99.3575
1956.4297	99.3288
1957.3940	99.2871
1958.3582	99.2405
1959.3225	99.1991
1960.2866	99.1701
1961.2510	99.1543
1962.2151	99.146
1963.1794	99.1367
1964.1436	99.1194
1965.1079	99.0929
1966.0720	99.0633
1967.0364	99.0409
1968.0005	99.035
1968.9648	99.0479
1969.9290	99.0741
1970.8933	99.1038
1971.8574	99.1281
1972.8218	99.1427
1973.7859	99.1491
1974.7502	99.1527
1975.7144	99.1604
1976.6787	99.1772
1977.6428	99.2053
1978.6072	99.2433
1979.5713	99.2862
1980.5356	99.3262
1981.4998	99.3549
1982.4641	99.3665
1983.4282	99.36
1984.3926	99.3406
1985.3567	99.3179
1986.3210	99.3022
1987.2852	99.3006
1988.2495	99.3149
1989.2136	99.3429
1990.1780	99.3797
1991.1421	99.4198
1992.1064	99.457
1993.0706	99.4848
1994.0349	99.4973
1994.9990	99.4919
1995.9634	99.471
1996.9275	99.443
1997.8918	99.4198
1998.8560	99.4129
1999.8203	99.4275
2000.7844	99.4599
2001.7488	99.5003
2002.7129	99.5378
2003.6772	99.5674
2004.6414	99.5916
2005.6057	99.6178
2006.5698	99.6514
2007.5342	99.69
2008.4983	99.7233
2009.4626	99.7383
2010.4268	99.7275
2011.3911	99.6926
2012.3552	99.6431
2013.3196	99.5908
2014.2837	99.545
2015.2480	99.511
2016.2122	99.4917
2017.1765	99.4893
2018.1406	99.5049
2019.1050	99.5373
2020.0691	99.5812
2021.0334	99.6294
2021.9976	99.6754
2022.9619	99.7165
2023.9260	99.7532
2024.8904	99.7857
2025.8545	99.8111
2026.8188	99.8227
2027.7830	99.8139
2028.7473	99.783
2029.7114	99.7365
2030.6758	99.6876
2031.6399	99.6511
2032.6042	99.6373
2033.5684	99.6484
2034.5327	99.6783
2035.4968	99.7156
2036.4612	99.7486
2037.4253	99.769
2038.3896	99.7744
2039.3538	99.7681
2040.3181	99.7575
2041.2822	99.7505
2042.2466	99.752
2043.2107	99.7614
2044.1750	99.7734
2045.1392	99.7805
2046.1035	99.7766
2047.0676	99.7607
2048.0320	99.7383
2048.9961	99.7189
2049.9604	99.7119
2050.9246	99.721
2051.8889	99.7426
2052.8530	99.7662
2053.8174	99.7798
2054.7815	99.7751
2055.7458	99.7511
2056.7100	99.7135
2057.6743	99.6708
2058.6384	99.6294
2059.6028	99.5914
2060.5669	99.5555
2061.5313	99.5201
2062.4954	99.485
2063.4597	99.4514
2064.4238	99.4201
2065.3882	99.3908
2066.3523	99.3627
2067.3167	99.3359
2068.2808	99.313
2069.2451	99.2972
2070.2092	99.2905
2071.1736	99.2914
2072.1377	99.2951
2073.1021	99.2953
2074.0662	99.2872
2075.0305	99.27
2075.9946	99.2469
2076.9590	99.2238
2077.9231	99.2065
2078.8875	99.199
2079.8516	99.2024
2080.8159	99.2155
2081.7800	99.235
2082.7444	99.2574
2083.7085	99.279
2084.6729	99.2957
2085.6370	99.304
2086.6013	99.3021
2087.5654	99.2911
2088.5298	99.2753
2089.4939	99.2612
2090.4583	99.2541
2091.4224	99.2552
2092.3867	99.2615
2093.3508	99.2677
2094.3152	99.2693
2095.2793	99.266
2096.2437	99.2614
2097.2078	99.2614
2098.1721	99.2711
2099.1362	99.2929
2100.1006	99.3254
2101.0647	99.3646
2102.0291	99.4053
2102.9932	99.4431
2103.9575	99.4755
2104.9216	99.5023
2105.8860	99.5248
2106.8501	99.5439
2107.8145	99.5594
2108.7786	99.5705
2109.7429	99.5772
2110.7070	99.5815
2111.6714	99.5868
2112.6355	99.5963
2113.5999	99.611
2114.5640	99.6296
2115.5283	99.6492
2116.4924	99.6679
2117.4568	99.6855
2118.4209	99.7019
2119.3853	99.7168
2120.3494	99.7287
2121.3137	99.7365
2122.2778	99.7409
2123.2422	99.7452
2124.2063	99.7525
2125.1707	99.7634
2126.1348	99.7745
2127.0991	99.7806
2128.0632	99.7784
2129.0276	99.77
2129.9917	99.7626
2130.9561	99.7648
2131.9202	99.7815
2132.8845	99.8092
2133.8486	99.8375
2134.8130	99.8535
2135.7771	99.849
2136.7415	99.826
2137.7056	99.7955
2138.6699	99.7723
2139.6340	99.7666
2140.5984	99.7788
2141.5625	99.7992
2142.5269	99.8147
2143.4910	99.8172
2144.4553	99.8097
2145.4194	99.8045
2146.3838	99.8157
2147.3479	99.8493
2148.3123	99.8983
2149.2764	99.9457
2150.2407	99.9731
2151.2048	99.9699
2152.1692	99.9376
2153.1333	99.8874
2154.0977	99.8346
2155.0618	99.7927
2156.0261	99.7702
2156.9902	99.7694
2157.9546	99.7865
2158.9187	99.8131
2159.8831	99.8391
2160.8472	99.8574
2161.8115	99.8655
2162.7756	99.8648
2163.7400	99.8567
2164.7041	99.8417
2165.6685	99.8201
2166.6326	99.7949
2167.5969	99.7736
2168.5610	99.7652
2169.5254	99.7749
2170.4895	99.8
2171.4539	99.8304
2172.4180	99.8547
2173.3823	99.8675
2174.3464	99.8722
2175.3108	99.8777
2176.2749	99.8898
2177.2393	99.9061
2178.2034	99.9165
2179.1677	99.911
2180.1318	99.8874
2181.0962	99.8538
2182.0603	99.8241
2183.0247	99.8098
2183.9888	99.8135
2184.9531	99.8288
2185.9172	99.8458
2186.8816	99.857
2187.8457	99.8617
2188.8101	99.8645
2189.7742	99.8728
2190.7385	99.8923
2191.7026	99.9246
2192.6670	99.9662
2193.6311	100.009
2194.5955	100.041
2195.5596	100.052
2196.5239	100.037
2197.4880	99.9986
2198.4524	99.9485
2199.4165	99.9035
2200.3809	99.8771
2201.3450	99.8737
2202.3093	99.887
2203.2734	99.9045
2204.2378	99.9143
2205.2019	99.9118
2206.1663	99.8998
2207.1304	99.8858
2208.0947	99.8764
2209.0588	99.8747
2210.0232	99.8798
2210.9873	99.889
2211.9517	99.8992
2212.9158	99.908
2213.8801	99.9134
2214.8442	99.9143
2215.8086	99.9107
2216.7727	99.9035
2217.7371	99.8939
2218.7012	99.8824
2219.6655	99.8682
2220.6296	99.8516
2221.5940	99.8354
2222.5581	99.8251
2223.5225	99.8263
2224.4866	99.8403
2225.4509	99.8612
2226.4150	99.8769
2227.3794	99.8753
2228.3435	99.8507
2229.3079	99.8077
2230.2720	99.76
2231.2363	99.7231
2232.2004	99.7073
2233.1648	99.7129
2234.1289	99.7314
2235.0933	99.7503
2236.0574	99.7596
2237.0217	99.755
2237.9858	99.7384
2238.9502	99.7157
2239.9143	99.6931
2240.8787	99.6755
2241.8428	99.6648
2242.8071	99.6603
2243.7712	99.6584
2244.7356	99.6545
2245.6997	99.6448
2246.6641	99.6287
2247.6282	99.6099
2248.5925	99.5953
2249.5566	99.5914
2250.5210	99.6013
2251.4851	99.6223
2252.4495	99.648
2253.4136	99.6706
2254.3779	99.6843
2255.3420	99.6868
2256.3064	99.6788
2257.2705	99.6638
2258.2349	99.647
2259.1990	99.6342
2260.1633	99.6304
2261.1274	99.6375
2262.0918	99.6536
2263.0559	99.6734
2264.0203	99.691
2264.9844	99.7029
2265.9487	99.7095
2266.9128	99.7137
2267.8772	99.7187
2268.8413	99.7254
2269.8057	99.7325
2270.7698	99.7374
2271.7341	99.7379
2272.6982	99.7329
2273.6626	99.7228
2274.6267	99.7095
2275.5911	99.6962
2276.5552	99.6867
2277.5195	99.6841
2278.4836	99.6894
2279.4480	99.7016
2280.4121	99.718
2281.3765	99.7355
2282.3406	99.7518
2283.3049	99.7655
2284.2690	99.7751
2285.2334	99.7799
2286.1975	99.7807
2287.1619	99.7806
2288.1260	99.7839
2289.0903	99.7934
2290.0544	99.8072
2291.0188	99.8187
2291.9829	99.8192
2292.9473	99.8032
2293.9114	99.7723
2294.8757	99.7354
2295.8398	99.7046
2296.8042	99.6887
2297.7683	99.6895
2298.7327	99.7022
2299.6968	99.718
2300.6611	99.7295
2301.6252	99.7333
2302.5896	99.7304
2303.5537	99.7241
2304.5181	99.7182
2305.4822	99.7157
2306.4465	99.7176
2307.4106	99.7239
2308.3750	99.7333
2309.3391	99.7442
2310.3035	99.7545
2311.2676	99.7624
2312.2319	99.7672
2313.1960	99.7682
2314.1604	99.7654
2315.1245	99.7588
2316.0889	99.7489
2317.0530	99.7374
2318.0173	99.7271
2318.9814	99.7203
2319.9458	99.7176
2320.9099	99.7164
2321.8743	99.7124
2322.8384	99.7032
2323.8027	99.6901
2324.7668	99.6785
2325.7312	99.6745
2326.6953	99.6814
2327.6597	99.698
2328.6238	99.7188
2329.5881	99.7375
2330.5522	99.7493
2331.5166	99.7521
2332.4807	99.7456
2333.4451	99.7297
2334.4092	99.7039
2335.3735	99.6703
2336.3376	99.6344
2337.3020	99.6047
2338.2661	99.5893
2339.2305	99.5911
2340.1946	99.6068
2341.1589	99.6298
2342.1230	99.6541
2343.0874	99.6782
2344.0515	99.7032
2345.0159	99.7295
2345.9800	99.7544
2346.9443	99.7733
2347.9084	99.7827
2348.8728	99.7818
2349.8369	99.7731
2350.8013	99.7611
2351.7654	99.7514
2352.7297	99.749
2353.6938	99.7558
2354.6582	99.77
2355.6223	99.788
2356.5867	99.8067
2357.5508	99.8243
2358.5151	99.8393
2359.4792	99.8489
2360.4436	99.85
2361.4077	99.8414
2362.3721	99.8258
2363.3362	99.8094
2364.3005	99.7979
2365.2646	99.7943
2366.2290	99.7969
2367.1931	99.8009
2368.1575	99.8012
2369.1216	99.7941
2370.0859	99.7786
2371.0500	99.7558
2372.0144	99.7287
2372.9785	99.7009
2373.9429	99.6758
2374.9070	99.6558
2375.8713	99.6405
2376.8354	99.6281
2377.7998	99.6162
2378.7639	99.6037
2379.7283	99.5911
2380.6924	99.5806
2381.6567	99.5738
2382.6208	99.5714
2383.5852	99.5719
2384.5493	99.5735
2385.5137	99.574
2386.4778	99.573
2387.4421	99.5711
2388.4063	99.5702
2389.3706	99.5721
2390.3347	99.5781
2391.2991	99.5879
2392.2632	99.5999
2393.2275	99.6113
2394.1917	99.6193
2395.1560	99.6223
2396.1201	99.6215
2397.0845	99.6204
2398.0486	99.6239
2399.0129	99.6353
2399.9771	99.6546
2400.9414	99.6782
2401.9055	99.6995
2402.8699	99.7133
2403.8340	99.7176
2404.7983	99.7156
2405.7625	99.7137
2406.7268	99.7184
2407.6909	99.7323
2408.6553	99.7532
2409.6194	99.7749
2410.5837	99.7906
2411.5479	99.7964
2412.5122	99.793
2413.4763	99.7847
2414.4407	99.7768
2415.4048	99.773
2416.3691	99.7741
2417.3333	99.7782
2418.2976	99.7827
2419.2617	99.7854
2420.2261	99.7855
2421.1902	99.7837
2422.1545	99.7809
2423.1187	99.7781
2424.0830	99.7761
2425.0471	99.7751
2426.0115	99.7753
2426.9756	99.7767
2427.9399	99.7786
2428.9041	99.7801
2429.8684	99.7799
2430.8325	99.7776
2431.7969	99.7734
2432.7610	99.7691
2433.7253	99.7671
2434.6895	99.7693
2435.6538	99.7759
2436.6179	99.7851
2437.5823	99.7937
2438.5464	99.7984
2439.5107	99.7974
2440.4749	99.7915
2441.4392	99.784
2442.4033	99.7789
2443.3677	99.7795
2444.3318	99.7861
2445.2961	99.7956
2446.2603	99.8027
2447.2246	99.8017
2448.1887	99.7902
2449.1531	99.7705
2450.1172	99.7491
2451.0815	99.7341
2452.0457	99.7308
2453.0100	99.7394
2453.9741	99.755
2454.9385	99.7698
2455.9026	99.7775
2456.8669	99.7759
2457.8311	99.767
2458.7954	99.7554
2459.7595	99.7456
2460.7239	99.7405
2461.6880	99.7407
2462.6523	99.7444
2463.6165	99.7489
2464.5808	99.7508
2465.5449	99.7475
2466.5093	99.7387
2467.4734	99.7267
2468.4377	99.7162
2469.4019	99.7123
2470.3662	99.7179
2471.3303	99.7322
2472.2947	99.751
2473.2588	99.7689
2474.2231	99.7812
2475.1873	99.7857
2476.1516	99.7825
2477.1157	99.7734
2478.0801	99.7614
2479.0442	99.7503
2480.0085	99.744
2480.9727	99.7458
2481.9370	99.7565
2482.9011	99.7733
2483.8655	99.7904
2484.8296	99.8017
2485.7939	99.804
2486.7581	99.7986
2487.7224	99.7911
2488.6865	99.7883
2489.6509	99.794
2490.6150	99.8075
2491.5793	99.8239
2492.5435	99.8375
2493.5078	99.8444
2494.4719	99.845
2495.4363	99.8426
2496.4004	99.8408
2497.3647	99.8416
2498.3289	99.8448
2499.2932	99.8485
2500.2573	99.8514
2501.2217	99.853
2502.1858	99.853
2503.1501	99.8505
2504.1143	99.8436
2505.0786	99.8305
2506.0427	99.8116
2507.0071	99.7912
2507.9712	99.7755
2508.9355	99.7707
2509.8997	99.7789
2510.8640	99.7974
2511.8281	99.8194
2512.7925	99.8378
2513.7566	99.8479
2514.7209	99.8494
2515.6851	99.8448
2516.6494	99.8376
2517.6135	99.8299
2518.5779	99.8219
2519.5420	99.8123
2520.5063	99.7997
2521.4705	99.7844
2522.4348	99.7682
2523.3989	99.7541
2524.3633	99.7445
2525.3274	99.7403
2526.2917	99.7397
2527.2559	99.7393
2528.2202	99.7353
2529.1843	99.7257
2530.1487	99.7115
2531.1128	99.696
2532.0771	99.6833
2533.0413	99.6757
2534.0056	99.6725
2534.9697	99.6698
2535.9341	99.6635
2536.8982	99.6508
2537.8625	99.6322
2538.8267	99.6106
2539.7910	99.5894
2540.7551	99.5713
2541.7195	99.5571
2542.6836	99.5471
2543.6479	99.5416
2544.6121	99.5415
2545.5764	99.5473
2546.5405	99.5585
2547.5049	99.5732
2548.4690	99.5886
2549.4333	99.6022
2550.3975	99.6127
2551.3618	99.6202
2552.3259	99.6261
2553.2903	99.6319
2554.2544	99.6392
2555.2188	99.6491
2556.1829	99.6611
2557.1472	99.6738
2558.1113	99.6853
2559.0757	99.6949
2560.0398	99.7032
2561.0042	99.7124
2561.9683	99.7247
2562.9326	99.7399
2563.8967	99.7549
2564.8611	99.7649
2565.8252	99.7659
2566.7896	99.757
2567.7537	99.7411
2568.7180	99.7233
2569.6821	99.7091
2570.6465	99.7018
2571.6106	99.7023
2572.5750	99.7086
2573.5391	99.7173
2574.5034	99.7244
2575.4675	99.727
2576.4319	99.7237
2577.3960	99.7156
2578.3604	99.7054
2579.3245	99.6966
2580.2888	99.6912
2581.2529	99.6896
2582.2173	99.6902
2583.1814	99.6906
2584.1458	99.6883
2585.1099	99.6816
2586.0742	99.6704
2587.0383	99.6559
2588.0027	99.6405
2588.9668	99.627
2589.9312	99.617
2590.8953	99.6103
2591.8596	99.6045
2592.8237	99.5962
2593.7881	99.5833
2594.7522	99.5656
2595.7166	99.5459
2596.6807	99.5278
2597.6450	99.5143
2598.6091	99.5068
2599.5735	99.5054
2600.5376	99.5095
2601.5020	99.5187
2602.4661	99.5326
2603.4304	99.5508
2604.3945	99.5726
2605.3589	99.5973
2606.3230	99.6241
2607.2874	99.6518
2608.2515	99.6785
2609.2158	99.7015
2610.1799	99.7181
2611.1443	99.7272
2612.1084	99.7302
2613.0728	99.7296
2614.0369	99.7278
2615.0012	99.7258
2615.9653	99.7227
2616.9297	99.7175
2617.8938	99.7107
2618.8582	99.7042
2619.8223	99.7001
2620.7866	99.6988
2621.7507	99.6988
2622.7151	99.6972
2623.6792	99.6923
2624.6436	99.6852
2625.6077	99.6787
2626.5720	99.6759
2627.5361	99.6777
2628.5005	99.6826
2629.4646	99.6879
2630.4290	99.6916
2631.3931	99.694
2632.3574	99.6971
2633.3215	99.7032
2634.2859	99.713
2635.2500	99.7254
2636.2144	99.7377
2637.1785	99.7472
2638.1428	99.7527
2639.1069	99.7541
2640.0713	99.7519
2641.0354	99.7467
2641.9998	99.7389
2642.9639	99.729
2643.9282	99.7182
2644.8923	99.7086
2645.8567	99.7017
2646.8208	99.6981
2647.7852	99.6966
2648.7493	99.6952
2649.7136	99.6925
2650.6777	99.6896
2651.6421	99.6893
2652.6062	99.6952
2653.5706	99.7089
2654.5347	99.7286
2655.4990	99.7499
2656.4631	99.7676
2657.4275	99.778
2658.3916	99.7805
2659.3560	99.7777
2660.3201	99.7735
2661.2844	99.7712
2662.2485	99.7723
2663.2129	99.7762
2664.1770	99.7815
2665.1414	99.7872
2666.1055	99.7931
2667.0698	99.8
2668.0339	99.8083
2668.9983	99.8175
2669.9624	99.8261
2670.9268	99.8318
2671.8909	99.8334
2672.8552	99.8308
2673.8193	99.8256
2674.7837	99.8204
2675.7478	99.8169
2676.7122	99.8155
2677.6763	99.815
2678.6406	99.8134
2679.6047	99.8093
2680.5691	99.8029
2681.5332	99.7961
2682.4976	99.7918
2683.4617	99.792
2684.4260	99.7968
2685.3901	99.8037
2686.3545	99.8087
2687.3186	99.8085
2688.2830	99.8021
2689.2471	99.7917
2690.2114	99.7816
2691.1755	99.7763
2692.1399	99.7778
2693.1040	99.785
2694.0684	99.7948
2695.0325	99.8031
2695.9968	99.8074
2696.9609	99.8064
2697.9253	99.8006
2698.8894	99.7912
2699.8538	99.78
2700.8179	99.7696
2701.7822	99.763
2702.7463	99.7626
2703.7107	99.7683
2704.6748	99.7773
2705.6392	99.7841
2706.6033	99.7838
2707.5676	99.7741
2708.5317	99.757
2709.4961	99.7378
2710.4602	99.7223
2711.4246	99.7143
2712.3887	99.7141
2713.3530	99.7188
2714.3171	99.7246
2715.2815	99.7287
2716.2456	99.7306
2717.2100	99.7321
2718.1741	99.7357
2719.1384	99.743
2720.1025	99.7533
2721.0669	99.764
2722.0310	99.7723
2722.9954	99.7766
2723.9595	99.7774
2724.9238	99.7763
2725.8879	99.7751
2726.8523	99.7741
2727.8164	99.7727
2728.7808	99.7707
2729.7449	99.7687
2730.7092	99.7681
2731.6733	99.7696
2732.6377	99.7722
2733.6018	99.7737
2734.5662	99.7718
2735.5303	99.7665
2736.4946	99.7603
2737.4587	99.7563
2738.4231	99.7562
2739.3872	99.7592
2740.3516	99.7626
2741.3157	99.7637
2742.2800	99.7613
2743.2441	99.7561
2744.2085	99.7496
2745.1726	99.7426
2746.1370	99.7345
2747.1011	99.7249
2748.0654	99.7141
2749.0295	99.7042
2749.9939	99.6982
2750.9580	99.6982
2751.9224	99.7042
2752.8865	99.7136
2753.8508	99.7226
2754.8149	99.727
2755.7793	99.7251
2756.7434	99.7173
2757.7078	99.707
2758.6719	99.6984
2759.6362	99.6948
2760.6003	99.697
2761.5647	99.7023
2762.5288	99.7058
2763.4932	99.7029
2764.4573	99.6919
2765.4216	99.6754
2766.3857	99.6592
2767.3501	99.6491
2768.3142	99.6477
2769.2786	99.6529
2770.2427	99.6598
2771.2070	99.6639
2772.1711	99.6636
2773.1355	99.6611
2774.0996	99.6594
2775.0640	99.6606
2776.0281	99.664
2776.9924	99.6674
2777.9565	99.6695
2778.9209	99.6711
2779.8850	99.6748
2780.8494	99.683
2781.8135	99.6961
2782.7778	99.7119
2783.7419	99.7266
2784.7063	99.7373
2785.6704	99.7422
2786.6348	99.7415
2787.5989	99.736
2788.5632	99.7271
2789.5273	99.7168
2790.4917	99.7077
2791.4558	99.7031
2792.4202	99.7055
2793.3843	99.7149
2794.3486	99.7286
2795.3127	99.7416
2796.2771	99.7495
2797.2412	99.7504
2798.2056	99.7457
2799.1697	99.7388
2800.1340	99.733
2801.0981	99.7295
2802.0625	99.7274
2803.0266	99.7255
2803.9910	99.7234
2804.9551	99.7221
2805.9194	99.7232
2806.8835	99.7272
2807.8479	99.7328
2808.8120	99.7377
2809.7764	99.7398
2810.7405	99.7385
2811.7048	99.7347
2812.6689	99.7298
2813.6333	99.7244
2814.5974	99.7185
2815.5618	99.7112
2816.5259	99.7021
2817.4902	99.6911
2818.4543	99.6789
2819.4187	99.666
2820.3828	99.6528
2821.3472	99.6398
2822.3113	99.6265
2823.2756	99.6124
2824.2397	99.596
2825.2041	99.5754
2826.1682	99.549
2827.1326	99.5161
2828.0967	99.4767
2829.0610	99.4323
2830.0251	99.3842
2830.9895	99.3331
2831.9536	99.2784
2832.9180	99.2172
2833.8821	99.1446
2834.8464	99.0549
2835.8105	98.9435
2836.7749	98.8092
2837.7390	98.6564
2838.7034	98.4956
2839.6675	98.3421
2840.6318	98.2128
2841.5959	98.1223
2842.5603	98.0798
2843.5244	98.0864
2844.4888	98.136
2845.4529	98.2175
2846.4172	98.3177
2847.3813	98.4256
2848.3457	98.534
2849.3098	98.6399
2850.2742	98.7427
2851.2383	98.8422
2852.2026	98.9373
2853.1667	99.0255
2854.1311	99.1042
2855.0952	99.1711
2856.0596	99.225
2857.0237	99.2655
2857.9880	99.2931
2858.9521	99.3094
2859.9165	99.3174
2860.8806	99.3203
2861.8450	99.3204
2862.8091	99.3184
2863.7734	99.3135
2864.7375	99.3042
2865.7019	99.2907
2866.6660	99.2747
2867.6304	99.2585
2868.5945	99.2436
2869.5588	99.2295
2870.5229	99.2139
2871.4873	99.1945
2872.4514	99.1703
2873.4158	99.1422
2874.3799	99.1116
2875.3442	99.0804
2876.3083	99.0493
2877.2727	99.0191
2878.2368	98.9907
2879.2012	98.9651
2880.1653	98.9435
2881.1296	98.9258
2882.0938	98.9117
2883.0581	98.9004
2884.0222	98.8915
2884.9866	98.8855
2885.9507	98.8831
2886.9150	98.8847
2887.8792	98.8898
2888.8435	98.8968
2889.8076	98.9032
2890.7720	98.9059
2891.7361	98.9022
2892.7004	98.8906
2893.6646	98.8714
2894.6289	98.8466
2895.5930	98.8184
2896.5574	98.7879
2897.5215	98.7547
2898.4858	98.7178
2899.4500	98.6771
2900.4143	98.6358
2901.3784	98.599
2902.3428	98.5719
2903.3069	98.5573
2904.2712	98.554
2905.2354	98.5587
2906.1997	98.5681
2907.1638	98.5817
2908.1282	98.6018
2909.0923	98.6317
2910.0566	98.6734
2911.0208	98.7258
2911.9851	98.7854
2912.9492	98.8471
2913.9136	98.9061
2914.8777	98.9586
2915.8420	99.0019
2916.8062	99.0344
2917.7705	99.056
2918.7346	99.0675
2919.6990	99.0698
2920.6631	99.0641
2921.6274	99.0511
2922.5916	99.0318
2923.5559	99.0086
2924.5200	98.9846
2925.4844	98.9624
2926.4485	98.942
2927.4128	98.92
2928.3770	98.8908
2929.3413	98.8497
2930.3054	98.7959
2931.2698	98.7326
2932.2339	98.6653
2933.1982	98.5983
2934.1624	98.531
2935.1267	98.458
2936.0908	98.3698
2937.0552	98.2554
2938.0193	98.105
2938.9836	97.9113
2939.9478	97.6694
2940.9121	97.3769
2941.8762	97.0322
2942.8406	96.6341
2943.8047	96.1825
2944.7690	95.6808
2945.7332	95.1399
2946.6975	94.582
2947.6616	94.0411
2948.6260	93.5587
2949.5901	93.1764
2950.5544	92.9281
2951.5186	92.8345
2952.4829	92.9008
2953.4470	93.1181
2954.4114	93.4653
2955.3755	93.9113
2956.3398	94.4179
2957.3040	94.945
2958.2683	95.4568
2959.2324	95.9287
2960.1968	96.3497
2961.1609	96.7209
2962.1252	97.049
2963.0894	97.3395
2964.0537	97.5927
2965.0178	97.8046
2965.9822	97.9714
2966.9463	98.0937
2967.9106	98.1789
2968.8748	98.2384
2969.8391	98.2841
2970.8032	98.3235
2971.7676	98.3583
2972.7317	98.3854
2973.6960	98.4003
2974.6602	98.4002
2975.6245	98.3862
2976.5886	98.3628
2977.5530	98.3357
2978.5171	98.3084
2979.4814	98.2807
2980.4456	98.2484
2981.4099	98.2054
2982.3740	98.1469
2983.3384	98.0714
2984.3025	97.9807
2985.2668	97.8787
2986.2310	97.7697
2987.1953	97.6571
2988.1594	97.5438
2989.1238	97.4326
2990.0879	97.3266
2991.0522	97.2281
2992.0164	97.1384
2992.9807	97.0574
2993.9448	96.9847
2994.9092	96.9203
2995.8733	96.8659
2996.8376	96.8237
2997.8018	96.7957
2998.7661	96.7819
2999.7302	96.7807
3000.6946	96.7896
3001.6587	96.8074
3002.6230	96.8348
3003.5872	96.8741
3004.5515	96.9274
3005.5156	96.9943
3006.4800	97.0716
3007.4441	97.1536
3008.4084	97.2339
3009.3726	97.3073
3010.3369	97.3713
3011.3010	97.4257
3012.2654	97.4723
3013.2295	97.5127
3014.1938	97.548
3015.1580	97.5779
3016.1223	97.601
3017.0864	97.6159
3018.0508	97.6212
3019.0149	97.6161
3019.9792	97.6003
3020.9434	97.5746
3021.9077	97.5405
3022.8718	97.501
3023.8362	97.4599
3024.8003	97.421
3025.7646	97.3861
3026.7288	97.3539
3027.6931	97.3196
3028.6572	97.2775
3029.6216	97.2245
3030.5857	97.1641
3031.5500	97.1077
3032.5142	97.072
3033.4785	97.0725
3034.4426	97.117
3035.4070	97.2019
3036.3711	97.3138
3037.3354	97.4348
3038.2996	97.5494
3039.2639	97.6493
3040.2280	97.7333
3041.1924	97.8049
3042.1565	97.8684
3043.1208	97.9265
3044.0850	97.9801
3045.0493	98.029
3046.0134	98.0732
3046.9778	98.1124
3047.9419	98.1457
3048.9063	98.1713
3049.8704	98.1862
3050.8347	98.187
3051.7988	98.1702
3052.7632	98.1324
3053.7273	98.0712
3054.6917	97.986
3055.6558	97.8792
3056.6201	97.7564
3057.5842	97.6261
3058.5486	97.4973
3059.5127	97.3787
3060.4771	97.2775
3061.4412	97.1991
3062.4055	97.1475
3063.3696	97.1238
3064.3340	97.1256
3065.2981	97.1468
3066.2625	97.1793
3067.2266	97.2156
3068.1909	97.2522
3069.1550	97.2905
3070.1194	97.3354
3071.0835	97.3917
3072.0479	97.4619
3073.0120	97.5444
3073.9763	97.6358
3074.9404	97.7327
3075.9048	97.8341
3076.8689	97.9402
3077.8333	98.0501
3078.7974	98.1594
3079.7617	98.261
3080.7258	98.3481
3081.6902	98.4175
3082.6543	98.471
3083.6187	98.5126
3084.5828	98.5444
3085.5471	98.5646
3086.5112	98.5684
3087.4756	98.5533
3088.4397	98.5229
3089.4041	98.4885
3090.3682	98.4648
3091.3325	98.4647
3092.2966	98.4941
3093.2610	98.5514
3094.2251	98.6288
3095.1895	98.7163
3096.1536	98.804
3097.1179	98.8838
3098.0820	98.9497
3099.0464	98.9984
3100.0105	99.0305
3100.9749	99.0501
3101.9390	99.0637
3102.9033	99.077
3103.8674	99.0925
3104.8318	99.1094
3105.7959	99.1247
3106.7603	99.1366
3107.7244	99.146
3108.6887	99.1566
3109.6528	99.1725
3110.6172	99.1962
3111.5813	99.2268
3112.5457	99.2609
3113.5098	99.2937
3114.4741	99.3214
3115.4382	99.3423
3116.4026	99.3571
3117.3667	99.3683
3118.3311	99.3784
3119.2952	99.3888
3120.2595	99.3996
3121.2236	99.4101
3122.1880	99.4204
3123.1521	99.4314
3124.1165	99.4447
3125.0806	99.4605
3126.0449	99.4769
3127.0090	99.4904
3127.9734	99.4982
3128.9375	99.5003
3129.9019	99.5003
3130.8660	99.5034
3131.8303	99.5128
3132.7944	99.5273
3133.7588	99.5415
3134.7229	99.549
3135.6873	99.5465
3136.6514	99.5355
3137.6157	99.5217
3138.5798	99.5114
3139.5442	99.5087
3140.5083	99.5141
3141.4727	99.5252
3142.4368	99.539
3143.4011	99.553
3144.3652	99.566
3145.3296	99.5769
3146.2937	99.5848
3147.2581	99.5887
3148.2222	99.5878
3149.1865	99.5818
3150.1506	99.5713
3151.1150	99.5575
3152.0791	99.5422
3153.0435	99.5275
3154.0076	99.5158
3154.9719	99.5093
3155.9360	99.509
3156.9004	99.514
3157.8645	99.5218
3158.8289	99.5293
3159.7930	99.5334
3160.7573	99.5322
3161.7214	99.5247
3162.6858	99.5115
3163.6499	99.4943
3164.6143	99.4762
3165.5784	99.4619
3166.5427	99.456
3167.5068	99.4618
3168.4712	99.4796
3169.4353	99.5067
3170.3997	99.5386
3171.3638	99.5708
3172.3281	99.6001
3173.2922	99.6241
3174.2566	99.6413
3175.2207	99.6506
3176.1851	99.6517
3177.1492	99.6468
3178.1135	99.64
3179.0776	99.6365
3180.0420	99.6396
3181.0061	99.6485
3181.9705	99.6593
3182.9346	99.6665
3183.8989	99.6669
3184.8630	99.661
3185.8274	99.653
3186.7915	99.6481
3187.7559	99.649
3188.7200	99.6549
3189.6843	99.662
3190.6484	99.6661
3191.6128	99.6649
3192.5769	99.659
3193.5413	99.6512
3194.5054	99.6459
3195.4697	99.6466
3196.4338	99.6555
3197.3982	99.6722
3198.3623	99.6931
3199.3267	99.7125
3200.2908	99.7244
3201.2551	99.7256
3202.2192	99.7174
3203.1836	99.7054
3204.1477	99.696
3205.1121	99.6928
3206.0762	99.6943
3207.0405	99.6954
3208.0046	99.6914
3208.9690	99.6816
3209.9331	99.6704
3210.8975	99.6638
3211.8616	99.6663
3212.8259	99.6773
3213.7900	99.6925
3214.7544	99.7071
3215.7185	99.718
3216.6829	99.7248
3217.6470	99.7279
3218.6113	99.7272
3219.5754	99.7217
3220.5398	99.7118
3221.5039	99.7009
3222.4683	99.6947
3223.4324	99.6983
3224.3967	99.7132
3225.3608	99.7353
3226.3252	99.7567
3227.2893	99.7694
3228.2537	99.7691
3229.2178	99.7571
3230.1821	99.7385
3231.1462	99.7195
3232.1106	99.7052
3233.0747	99.6991
3234.0391	99.7028
3235.0032	99.7166
3235.9675	99.7385
3236.9316	99.763
3237.8960	99.782
3238.8601	99.7877
3239.8245	99.7773
3240.7886	99.755
3241.7529	99.7316
3242.7170	99.7197
3243.6814	99.7274
3244.6455	99.7536
3245.6099	99.7888
3246.5740	99.8195
3247.5383	99.8356
3248.5024	99.8343
3249.4668	99.8211
3250.4309	99.8053
3251.3953	99.7957
3252.3594	99.7962
3253.3237	99.8048
3254.2878	99.8159
3255.2522	99.8239
3256.2163	99.826
3257.1807	99.8229
3258.1448	99.8176
3259.1091	99.8131
3260.0732	99.8109
3261.0376	99.8101
3262.0017	99.8093
3262.9661	99.8076
3263.9302	99.8055
3264.8945	99.8045
3265.8586	99.8055
3266.8230	99.8081
3267.7871	99.8104
3268.7515	99.8108
3269.7156	99.8095
3270.6799	99.8087
3271.6440	99.8113
3272.6084	99.8184
3273.5725	99.8273
3274.5369	99.8328
3275.5010	99.8298
3276.4653	99.8172
3277.4294	99.7999
3278.3938	99.7868
3279.3579	99.7871
3280.3223	99.8054
3281.2864	99.8393
3282.2507	99.8806
3283.2148	99.9178
3284.1792	99.9415
3285.1433	99.9472
3286.1077	99.9372
3287.0718	99.9183
3288.0361	99.8992
3289.0002	99.8864
3289.9646	99.8821
3290.9287	99.8833
3291.8931	99.8839
3292.8572	99.8773
3293.8215	99.8593
3294.7856	99.8294
3295.7500	99.7914
3296.7141	99.7521
3297.6785	99.7201
3298.6426	99.703
3299.6069	99.7051
3300.5710	99.7248
3301.5354	99.7544
3302.4995	99.7825
3303.4639	99.7987
3304.4280	99.7974
3305.3923	99.7803
3306.3564	99.7547
3307.3208	99.7297
3308.2849	99.713
3309.2493	99.7085
3310.2134	99.7166
3311.1777	99.7348
3312.1418	99.7583
3313.1062	99.7803
3314.0703	99.7936
3315.0347	99.7927
3315.9988	99.7774
3316.9631	99.7534
3317.9272	99.7307
3318.8916	99.7182
3319.8557	99.7192
3320.8201	99.7305
3321.7842	99.7448
3322.7485	99.7558
3323.7126	99.7611
3324.6770	99.7623
3325.6411	99.762
3326.6055	99.761
3327.5696	99.7573
3328.5339	99.7489
3329.4980	99.736
3330.4624	99.7226
3331.4265	99.7146
3332.3909	99.7165
3333.3550	99.7292
3334.3193	99.7493
3335.2834	99.7707
3336.2478	99.7875
3337.2119	99.7958
3338.1763	99.7945
3339.1404	99.7851
3340.1047	99.7706
3341.0688	99.7552
3342.0332	99.7434
3342.9973	99.7393
3343.9617	99.7458
3344.9258	99.7629
3345.8901	99.7875
3346.8542	99.8132
3347.8186	99.8323
3348.7827	99.8381
3349.7471	99.8279
3350.7112	99.8049
3351.6755	99.7778
3352.6396	99.7573
3353.6040	99.7521
3354.5681	99.7638
3355.5325	99.7859
3356.4966	99.8061
3357.4609	99.8129
3358.4250	99.8016
3359.3894	99.7776
3360.3535	99.7538
3361.3179	99.744
3362.2820	99.7547
3363.2463	99.7811
3364.2104	99.8089
3365.1748	99.8212
3366.1389	99.8077
3367.1033	99.7709
3368.0674	99.7251
3369.0317	99.69
3369.9958	99.681
3370.9602	99.7024
3371.9243	99.745
3372.8887	99.7906
3373.8528	99.8205
3374.8171	99.8232
3375.7813	99.7988
3376.7456	99.7576
3377.7097	99.7149
3378.6741	99.6839
3379.6382	99.6715
3380.6025	99.6775
3381.5667	99.6962
3382.5310	99.7202
3383.4951	99.7429
3384.4595	99.7606
3385.4236	99.7725
3386.3879	99.7802
3387.3521	99.7856
3388.3164	99.7898
3389.2805	99.7923
3390.2449	99.7916
3391.2090	99.7867
3392.1733	99.7778
3393.1375	99.7665
3394.1018	99.7542
3395.0659	99.7418
3396.0303	99.73
3396.9944	99.7198
3397.9587	99.7127
3398.9229	99.7098
3399.8872	99.7108
3400.8513	99.7132
3401.8157	99.7143
3402.7798	99.7128
3403.7441	99.7098
3404.7083	99.7075
3405.6726	99.7072
3406.6367	99.7077
3407.6011	99.7059
3408.5652	99.6991
3409.5295	99.6868
3410.4937	99.6709
3411.4580	99.6543
3412.4221	99.6384
3413.3865	99.6225
3414.3506	99.6036
3415.3149	99.5788
3416.2791	99.5463
3417.2434	99.5071
3418.2075	99.4652
3419.1719	99.426
3420.1360	99.3943
3421.1003	99.3712
3422.0645	99.3534
3423.0288	99.3342
3423.9929	99.3083
3424.9573	99.275
3425.9214	99.2394
3426.8857	99.2101
3427.8499	99.1952
3428.8142	99.1985
3429.7783	99.2188
3430.7427	99.2508
3431.7068	99.2881
3432.6711	99.3246
3433.6353	99.3556
3434.5996	99.3781
3435.5637	99.3916
3436.5281	99.3981
3437.4922	99.4018
3438.4565	99.4069
3439.4207	99.4161
3440.3850	99.4297
3441.3491	99.4455
3442.3135	99.4612
3443.2776	99.475
3444.2419	99.4868
3445.2061	99.4977
3446.1704	99.5094
3447.1345	99.5233
3448.0989	99.5395
3449.0630	99.557
3450.0273	99.5743
3450.9915	99.5909
3451.9558	99.6086
3452.9199	99.6309
3453.8843	99.6611
3454.8484	99.6987
3455.8127	99.7378
3456.7769	99.7691
3457.7412	99.7842
3458.7053	99.7806
3459.6697	99.7636
3460.6338	99.7434
3461.5981	99.7294
3462.5623	99.7254
3463.5266	99.7282
3464.4907	99.7306
3465.4551	99.7264
3466.4192	99.7137
3467.3835	99.6953
3468.3477	99.6772
3469.3120	99.6653
3470.2761	99.664
3471.2405	99.6744
3472.2046	99.6936
3473.1689	99.7149
3474.1331	99.7291
3475.0974	99.7278
3476.0615	99.7076
3477.0259	99.6724
3477.9900	99.6325
3478.9543	99.6005
3479.9185	99.5864
3480.8828	99.5935
3481.8469	99.6171
3482.8113	99.647
3483.7754	99.6717
3484.7397	99.6826
3485.7039	99.676
3486.6682	99.6538
3487.6323	99.6239
3488.5967	99.5989
3489.5608	99.5917
3490.5251	99.6104
3491.4893	99.6535
3492.4536	99.7093
3493.4177	99.7604
3494.3821	99.79
3495.3462	99.7896
3496.3105	99.7624
3497.2747	99.7203
3498.2390	99.6779
3499.2031	99.6458
3500.1675	99.6288
3501.1316	99.626
3502.0959	99.6331
3503.0601	99.6445
3504.0244	99.6548
3504.9885	99.6608
3505.9529	99.6622
3506.9170	99.6606
3507.8813	99.6581
3508.8455	99.6561
3509.8098	99.654
3510.7739	99.6502
3511.7383	99.644
3512.7024	99.6358
3513.6667	99.6274
3514.6309	99.6205
3515.5952	99.6157
3516.5593	99.6124
3517.5237	99.6098
3518.4878	99.6077
3519.4521	99.6063
3520.4163	99.6059
3521.3806	99.6059
3522.3447	99.606
3523.3091	99.6066
3524.2732	99.6076
3525.2375	99.6076
3526.2017	99.6026
3527.1660	99.5873
3528.1301	99.5596
3529.0945	99.5238
3530.0586	99.4913
3531.0229	99.4743
3531.9871	99.4804
3532.9514	99.5078
3533.9155	99.546
3534.8799	99.58
3535.8440	99.5976
3536.8083	99.5943
3537.7725	99.5754
3538.7368	99.5513
3539.7009	99.5316
3540.6653	99.5206
3541.6294	99.517
3542.5938	99.5165
3543.5579	99.5155
3544.5222	99.5134
3545.4863	99.5137
3546.4507	99.5201
3547.4148	99.5324
3548.3792	99.5453
3549.3433	99.5507
3550.3076	99.5425
3551.2717	99.5206
3552.2361	99.4928
3553.2002	99.4717
3554.1646	99.468
3555.1287	99.4845
3556.0930	99.5161
3557.0571	99.5528
3558.0215	99.5847
3558.9856	99.6049
3559.9500	99.6112
3560.9141	99.6045
3561.8784	99.5874
3562.8425	99.5621
3563.8069	99.5311
3564.7710	99.5
3565.7354	99.4786
3566.6995	99.4773
3567.6638	99.4986
3568.6279	99.5347
3569.5923	99.5738
3570.5564	99.608
3571.5208	99.6348
3572.4849	99.6541
3573.4492	99.6657
3574.4133	99.6685
3575.3777	99.6611
3576.3418	99.6449
3577.3062	99.6252
3578.2703	99.6098
3579.2346	99.6061
3580.1987	99.6169
3581.1631	99.6397
3582.1272	99.6685
3583.0916	99.6962
3584.0557	99.7168
3585.0200	99.7248
3585.9841	99.7168
3586.9485	99.6934
3587.9126	99.662
3588.8770	99.6323
3589.8411	99.6088
3590.8054	99.5894
3591.7695	99.5684
3592.7339	99.5412
3593.6980	99.5092
3594.6624	99.4808
3595.6265	99.4675
3596.5908	99.4767
3597.5549	99.5071
3598.5193	99.55
3599.4834	99.594
3600.4478	99.6281
3601.4119	99.6451
3602.3762	99.6424
3603.3403	99.6215
3604.3047	99.5865
3605.2688	99.5445
3606.2332	99.505
3607.1973	99.4775
3608.1616	99.4656
3609.1257	99.4646
3610.0901	99.4656
3611.0542	99.4634
3612.0186	99.4598
3612.9827	99.4603
3613.9470	99.4675
3614.9111	99.4773
3615.8755	99.4806
3616.8396	99.4702
3617.8040	99.4475
3618.7681	99.4247
3619.7324	99.4177
3620.6965	99.4329
3621.6609	99.4628
3622.6250	99.4928
3623.5894	99.5115
3624.5535	99.5133
3625.5178	99.5001
3626.4819	99.4808
3627.4463	99.4707
3628.4104	99.4814
3629.3748	99.507
3630.3389	99.5283
3631.3032	99.5316
3632.2673	99.5179
3633.2317	99.4982
3634.1958	99.4861
3635.1602	99.4904
3636.1243	99.5096
3637.0886	99.5315
3638.0527	99.5397
3639.0171	99.5241
3639.9812	99.4872
3640.9456	99.444
3641.9097	99.4146
3642.8740	99.4138
3643.8381	99.4453
3644.8025	99.5019
3645.7666	99.5681
3646.7310	99.6229
3647.6951	99.6455
3648.6594	99.6301
3649.6235	99.5966
3650.5879	99.5704
3651.5520	99.5581
3652.5164	99.5511
3653.4805	99.539
3654.4448	99.5167
3655.4089	99.4879
3656.3733	99.4641
3657.3374	99.4568
3658.3018	99.469
3659.2659	99.4937
3660.2302	99.5209
3661.1943	99.543
3662.1587	99.5578
3663.1228	99.5677
3664.0872	99.5768
3665.0513	99.5869
3666.0156	99.5966
3666.9797	99.6016
3667.9441	99.5973
3668.9082	99.583
3669.8726	99.5642
3670.8367	99.5492
3671.8010	99.5441
3672.7651	99.5523
3673.7295	99.5768
3674.6936	99.6178
3675.6580	99.6658
3676.6221	99.7018
3677.5864	99.7105
3678.5505	99.6903
3679.5149	99.6503
3680.4790	99.6045
3681.4434	99.5668
3682.4075	99.5468
3683.3718	99.5468
3684.3359	99.563
3685.3003	99.5895
3686.2644	99.6214
3687.2288	99.6551
3688.1929	99.6857
3689.1572	99.705
3690.1213	99.7081
3691.0857	99.6989
3692.0498	99.6881
3693.0142	99.685
3693.9783	99.6927
3694.9426	99.7076
3695.9067	99.7208
3696.8711	99.7229
3697.8352	99.7092
3698.7996	99.6823
3699.7637	99.652
3700.7280	99.6313
3701.6921	99.6295
3702.6565	99.6466
3703.6206	99.6736
3704.5850	99.6987
3705.5491	99.7116
3706.5134	99.7054
3707.4775	99.6767
3708.4419	99.6279
3709.4060	99.5719
3710.3704	99.5323
3711.3345	99.5308
3712.2988	99.5687
3713.2629	99.6278
3714.2273	99.686
3715.1914	99.728
3716.1558	99.746
3717.1199	99.7376
3718.0842	99.7063
3719.0483	99.6633
3720.0127	99.6263
3720.9768	99.6123
3721.9412	99.6292
3722.9053	99.67
3723.8696	99.7169
3724.8337	99.7507
3725.7981	99.7619
3726.7622	99.7541
3727.7266	99.7372
3728.6907	99.7197
3729.6550	99.7052
3730.6191	99.6936
3731.5835	99.6851
3732.5476	99.6828
3733.5120	99.6902
3734.4761	99.7046
3735.4404	99.7142
3736.4045	99.7085
3737.3689	99.6887
3738.3330	99.6664
3739.2974	99.6547
3740.2615	99.6631
3741.2258	99.6953
3742.1899	99.7465
3743.1543	99.7994
3744.1184	99.8285
3745.0828	99.8195
3746.0469	99.7807
3747.0112	99.7306
3747.9753	99.6835
3748.9397	99.6486
3749.9038	99.6333
3750.8682	99.6417
3751.8323	99.6678
3752.7966	99.6992
3753.7607	99.7263
3754.7251	99.7452
3755.6892	99.755
3756.6536	99.7551
3757.6177	99.7451
3758.5820	99.7263
3759.5461	99.7027
3760.5105	99.6797
3761.4746	99.6624
3762.4390	99.6539
3763.4031	99.6559
3764.3674	99.6683
3765.3315	99.6891
3766.2959	99.7138
3767.2600	99.7363
3768.2244	99.7509
3769.1885	99.7545
3770.1528	99.7492
3771.1169	99.7405
3772.0813	99.7343
3773.0454	99.7331
3774.0098	99.7355
3774.9739	99.7383
3775.9382	99.7389
3776.9023	99.738
3777.8667	99.7399
3778.8308	99.7494
3779.7952	99.767
3780.7593	99.7874
3781.7236	99.8026
3782.6877	99.8077
3783.6521	99.8034
3784.6162	99.7953
3785.5806	99.7903
3786.5447	99.7915
3787.5090	99.7968
3788.4731	99.8005
3789.4375	99.7981
3790.4016	99.7893
3791.3660	99.7776
3792.3301	99.7681
3793.2944	99.7649
3794.2585	99.7685
3795.2229	99.7763
3796.1870	99.7837
3797.1514	99.7872
3798.1155	99.7856
3799.0798	99.7805
3800.0439	99.7762
3801.0083	99.7773
3801.9724	99.7859
3802.9368	99.7986
3803.9009	99.8081
3804.8652	99.8059
3805.8293	99.7873
3806.7937	99.7562
3807.7578	99.7262
3808.7222	99.7134
3809.6863	99.725
3810.6506	99.7569
3811.6147	99.7976
3812.5791	99.8328
3813.5432	99.8495
3814.5076	99.8414
3815.4717	99.8146
3816.4360	99.7838
3817.4001	99.7596
3818.3645	99.7409
3819.3286	99.72
3820.2930	99.6939
3821.2571	99.6704
3822.2214	99.663
3823.1855	99.6776
3824.1499	99.7084
3825.1140	99.743
3826.0784	99.7683
3827.0425	99.7759
3828.0068	99.7639
3828.9709	99.7374
3829.9353	99.7054
3830.8994	99.6771
3831.8638	99.6596
3832.8279	99.6572
3833.7922	99.6715
3834.7563	99.6998
3835.7207	99.7347
3836.6848	99.7641
3837.6492	99.7767
3838.6133	99.7701
3839.5776	99.7539
3840.5417	99.7424
3841.5061	99.7427
3842.4702	99.7516
3843.4346	99.7593
3844.3987	99.7568
3845.3630	99.7429
3846.3271	99.7246
3847.2915	99.7117
3848.2556	99.711
3849.2200	99.7229
3850.1841	99.7405
3851.1484	99.7502
3852.1125	99.739
3853.0769	99.7098
3854.0410	99.6851
3855.0054	99.6821
3855.9695	99.6972
3856.9338	99.7187
3857.8979	99.7382
3858.8623	99.7525
3859.8264	99.7616
3860.7908	99.7668
3861.7549	99.7703
3862.7192	99.7739
3863.6833	99.779
3864.6477	99.7856
3865.6118	99.7915
3866.5762	99.7926
3867.5403	99.7842
3868.5046	99.7638
3869.4688	99.7338
3870.4331	99.7027
3871.3972	99.6808
3872.3616	99.6737
3873.3257	99.6799
3874.2900	99.6935
3875.2542	99.7081
3876.2185	99.719
3877.1826	99.7236
3878.1470	99.7213
3879.1111	99.7138
3880.0754	99.7056
3881.0396	99.7027
3882.0039	99.7105
3882.9680	99.7306
3883.9324	99.7599
3884.8965	99.7911
3885.8608	99.8146
3886.8250	99.8226
3887.7893	99.812
3888.7534	99.7848
3889.7178	99.7484
3890.6819	99.7148
3891.6462	99.6976
3892.6104	99.7045
3893.5747	99.7312
3894.5388	99.7658
3895.5032	99.7954
3896.4673	99.8093
3897.4316	99.8003
3898.3958	99.7665
3899.3601	99.7138
3900.3242	99.6563
3901.2886	99.6116
3902.2527	99.5922
3903.2170	99.6003
3904.1812	99.6269
3905.1455	99.6585
3906.1096	99.684
3907.0740	99.699
3908.0381	99.7036
3909.0024	99.6999
3909.9666	99.6898
3910.9309	99.6752
3911.8950	99.6598
3912.8594	99.6498
3913.8235	99.6525
3914.7878	99.6725
3915.7520	99.7077
3916.7163	99.7463
3917.6804	99.7721
3918.6448	99.774
3919.6089	99.7531
3920.5732	99.7206
3921.5374	99.6903
3922.5017	99.6727
3923.4658	99.6718
3924.4302	99.6849
3925.3943	99.705
3926.3586	99.7243
3927.3228	99.736
3928.2871	99.7356
3929.2512	99.7201
3930.2156	99.6906
3931.1797	99.6545
3932.1440	99.6245
3933.1082	99.6127
3934.0725	99.6236
3935.0366	99.6519
3936.0010	99.6859
3936.9651	99.7126
3937.9294	99.7229
3938.8936	99.7145
3939.8579	99.6927
3940.8220	99.6679
3941.7864	99.6516
3942.7505	99.6505
3943.7148	99.6646
3944.6790	99.6875
3945.6433	99.7107
3946.6074	99.7267
3947.5718	99.7309
3948.5359	99.7233
3949.5002	99.7085
3950.4644	99.695
3951.4287	99.6908
3952.3928	99.7011
3953.3572	99.7254
3954.3213	99.7579
3955.2856	99.7901
3956.2498	99.8137
3957.2141	99.8241
3958.1782	99.8216
3959.1426	99.8104
3960.1067	99.7957
3961.0710	99.7816
3962.0352	99.77
3962.9995	99.7609
3963.9636	99.7527
3964.9280	99.7438
3965.8921	99.7331
3966.8564	99.7215
3967.8206	99.7126
3968.7849	99.7118
3969.7490	99.7231
3970.7134	99.7456
3971.6775	99.7721
3972.6418	99.791
3973.6060	99.7931
3974.5703	99.7767
3975.5344	99.7496
3976.4988	99.7246
3977.4629	99.712
3978.4272	99.7137
3979.3914	99.724
3980.3557	99.7342
3981.3198	99.7393
3982.2842	99.7405
3983.2483	99.7429
3984.2126	99.7498
3985.1768	99.759
3986.1411	99.7645
3987.1052	99.7609
3988.0696	99.7479
3989.0337	99.7306
3989.9980	99.7155
3990.9622	99.7057
3991.9265	99.6986
3992.8906	99.6889
3993.8550	99.6729
3994.8191	99.6525
3995.7834	99.6337
3996.7476	99.6229
3997.7119	99.6236
3998.6760	99.6339
3999.6404	99.6486
4000.6045	99.6611

##### Extended Information
[Comments]
Sample name
Comment
Username
Division
Organization	Uni Wrzburg

[Detailed Information]
Creation date	10/20/2025 3:31 PM

Data array type	Linear data array
Horizontal axis	Wavenumber [cm-1]
Vertical axis	%T
Start	649.893 cm-1
End	4000.6 cm-1
Data interval	0.964233 cm-1
Data points	3476    

[Measurement Information]
Model name	FT/IR-4100typeA
Serial No.	C210961016

Measurement date	10/20/2025 3:31 PM

Light source	Standard
Detector	TGS
Accumulation	25
Resolution	4 cm-1
Zero filling	On
Apodization	Cosine
Gain	Auto (8)
Aperture	Auto (7.1 mm)
Scan speed	Auto (2 mm/sec)
Filter	Auto (30000 Hz)

