TITLE	
DATA TYPE	INFRARED SPECTRUM
ORIGIN	JASCO
OWNER	
DATE	25/10/20
TIME	14:24:49
SPECTROMETER/DATA SYSTEM	
LOCALE	1033
RESOLUTION	
DELTAX	0.964233
XUNITS	1/CM
YUNITS	TRANSMITTANCE
FIRSTX	 1999.8202
LASTX	 6500.8621
NPOINTS	    4669
FIRSTY	    99.26371
MAXY	   104.28822
MINY	    77.57877
XYDATA
1999.8202	99.2637
2000.7844	99.3075
2001.7487	99.3697
2002.7129	99.4391
2003.6771	99.5025
2004.6414	99.5493
2005.6056	99.5765
2006.5698	99.5902
2007.5341	99.6018
2008.4983	99.6207
2009.4625	99.648
2010.4268	99.6756
2011.3910	99.6908
2012.3552	99.6844
2013.3195	99.6559
2014.2837	99.6149
2015.2479	99.5774
2016.2122	99.5588
2017.1764	99.5671
2018.1406	99.5987
2019.1049	99.6407
2020.0691	99.6768
2021.0333	99.6962
2021.9976	99.698
2022.9618	99.6917
2023.9260	99.6918
2024.8903	99.7094
2025.8545	99.7457
2026.8187	99.7905
2027.7830	99.827
2028.7472	99.8405
2029.7114	99.8254
2030.6757	99.7877
2031.6399	99.7408
2032.6041	99.6995
2033.5684	99.6734
2034.5326	99.6646
2035.4968	99.6697
2036.4611	99.683
2037.4253	99.7007
2038.3895	99.7207
2039.3538	99.7418
2040.3180	99.762
2041.2822	99.7783
2042.2465	99.7887
2043.2107	99.7937
2044.1749	99.7971
2045.1392	99.8037
2046.1034	99.8163
2047.0676	99.8329
2048.0320	99.8473
2048.9961	99.8519
2049.9604	99.8428
2050.9246	99.8219
2051.8889	99.7965
2052.8530	99.7759
2053.8174	99.7666
2054.7815	99.7707
2055.7458	99.7851
2056.7100	99.8039
2057.6743	99.8205
2058.6384	99.8298
2059.6028	99.8289
2060.5669	99.8186
2061.5313	99.8029
2062.4954	99.7897
2063.4597	99.7873
2064.4238	99.8003
2065.3882	99.8258
2066.3523	99.854
2067.3167	99.8724
2068.2808	99.8737
2069.2451	99.8597
2070.2092	99.84
2071.1736	99.8257
2072.1377	99.8232
2073.1021	99.8302
2074.0662	99.8387
2075.0305	99.8402
2075.9946	99.8313
2076.9590	99.8153
2077.9231	99.7996
2078.8875	99.7914
2079.8516	99.7943
2080.8159	99.8071
2081.7800	99.824
2082.7444	99.8379
2083.7085	99.8433
2084.6729	99.8389
2085.6370	99.8283
2086.6013	99.8183
2087.5654	99.8149
2088.5298	99.8199
2089.4939	99.8296
2090.4583	99.8374
2091.4224	99.838
2092.3867	99.8301
2093.3508	99.8179
2094.3152	99.8074
2095.2793	99.8035
2096.2437	99.807
2097.2078	99.8159
2098.1721	99.8275
2099.1362	99.8405
2100.1006	99.8558
2101.0647	99.8742
2102.0291	99.8942
2102.9932	99.9108
2103.9575	99.9169
2104.9216	99.9064
2105.8860	99.8779
2106.8501	99.8367
2107.8145	99.7937
2108.7786	99.7611
2109.7429	99.7476
2110.7070	99.7547
2111.6714	99.7763
2112.6355	99.8024
2113.5999	99.8235
2114.5640	99.8338
2115.5283	99.8316
2116.4924	99.818
2117.4568	99.7951
2118.4209	99.7655
2119.3853	99.7339
2120.3494	99.7072
2121.3137	99.6929
2122.2778	99.6954
2123.2422	99.7123
2124.2063	99.7349
2125.1707	99.7522
2126.1348	99.7578
2127.0991	99.7537
2128.0632	99.749
2129.0276	99.7544
2129.9917	99.7749
2130.9561	99.8063
2131.9202	99.8376
2132.8845	99.8568
2133.8486	99.8575
2134.8130	99.8417
2135.7771	99.8176
2136.7415	99.7949
2137.7056	99.7791
2138.6699	99.7707
2139.6340	99.7665
2140.5984	99.7632
2141.5625	99.761
2142.5269	99.7631
2143.4910	99.7743
2144.4553	99.7967
2145.4194	99.8279
2146.3838	99.8611
2147.3479	99.8888
2148.3123	99.9057
2149.2764	99.9105
2150.2407	99.9038
2151.2048	99.8855
2152.1692	99.8547
2153.1333	99.8121
2154.0977	99.7629
2155.0618	99.7184
2156.0261	99.692
2156.9902	99.6928
2157.9546	99.7196
2158.9187	99.7617
2159.8831	99.804
2160.8472	99.8357
2161.8115	99.8525
2162.7756	99.8545
2163.7400	99.8426
2164.7041	99.8176
2165.6685	99.7821
2166.6326	99.742
2167.5969	99.705
2168.5610	99.6771
2169.5254	99.6584
2170.4895	99.6437
2171.4539	99.6245
2172.4180	99.5935
2173.3823	99.5478
2174.3464	99.49
2175.3108	99.4273
2176.2749	99.37
2177.2393	99.3292
2178.2034	99.314
2179.1677	99.3293
2180.1318	99.3733
2181.0962	99.4372
2182.0603	99.5078
2183.0247	99.5716
2183.9888	99.6188
2184.9531	99.645
2185.9172	99.6511
2186.8816	99.6413
2187.8457	99.6213
2188.8101	99.5973
2189.7742	99.575
2190.7385	99.5588
2191.7026	99.5502
2192.6670	99.5477
2193.6311	99.5461
2194.5955	99.5377
2195.5596	99.5143
2196.5239	99.4698
2197.4880	99.4022
2198.4524	99.3156
2199.4165	99.2194
2200.3809	99.1255
2201.3450	99.0446
2202.3093	98.9827
2203.2734	98.9405
2204.2378	98.9142
2205.2019	98.8981
2206.1663	98.8869
2207.1304	98.875
2208.0947	98.8558
2209.0588	98.8198
2210.0232	98.754
2210.9873	98.6431
2211.9517	98.4713
2212.9158	98.2247
2213.8801	97.8924
2214.8442	97.4661
2215.8086	96.9381
2216.7727	96.2971
2217.7371	95.5237
2218.7012	94.5865
2219.6655	93.44
2220.6296	92.0287
2221.5940	90.3007
2222.5581	88.2337
2223.5225	85.8709
2224.4866	83.354
2225.4509	80.9359
2226.4150	78.9517
2227.3794	77.7473
2228.3435	77.5788
2229.3079	78.5244
2230.2720	80.4463
2231.2363	83.0249
2232.2004	85.8544
2233.1648	88.5576
2234.1289	90.8733
2235.0933	92.6876
2236.0574	94.0109
2237.0217	94.9267
2237.9858	95.5422
2238.9502	95.96
2239.9143	96.2687
2240.8787	96.5408
2241.8428	96.8286
2242.8071	97.1571
2243.7712	97.5202
2244.7356	97.8874
2245.6997	98.2197
2246.6641	98.4879
2247.6282	98.6829
2248.5925	98.8157
2249.5566	98.907
2250.5210	98.975
2251.4851	99.0282
2252.4495	99.0657
2253.4136	99.0838
2254.3779	99.0833
2255.3420	99.0735
2256.3064	99.0693
2257.2705	99.0857
2258.2349	99.1297
2259.1990	99.1985
2260.1633	99.2804
2261.1274	99.3614
2262.0918	99.4305
2263.0559	99.4837
2264.0203	99.5227
2264.9844	99.5521
2265.9487	99.5753
2266.9128	99.5927
2267.8772	99.6024
2268.8413	99.602
2269.8057	99.5912
2270.7698	99.5723
2271.7341	99.55
2272.6982	99.5303
2273.6626	99.5186
2274.6267	99.5189
2275.5911	99.5319
2276.5552	99.5552
2277.5195	99.5834
2278.4836	99.6102
2279.4480	99.631
2280.4121	99.6446
2281.3765	99.6533
2282.3406	99.6602
2283.3049	99.6671
2284.2690	99.6732
2285.2334	99.6763
2286.1975	99.6755
2287.1619	99.673
2288.1260	99.6735
2289.0903	99.6815
2290.0544	99.6978
2291.0188	99.718
2291.9829	99.7349
2292.9473	99.7421
2293.9114	99.738
2294.8757	99.7263
2295.8398	99.7139
2296.8042	99.7071
2297.7683	99.7085
2298.7327	99.7165
2299.6968	99.7265
2300.6611	99.7337
2301.6252	99.7345
2302.5896	99.7283
2303.5537	99.7169
2304.5181	99.7037
2305.4822	99.6923
2306.4465	99.685
2307.4106	99.6819
2308.3750	99.681
2309.3391	99.6789
2310.3035	99.6723
2311.2676	99.6599
2312.2319	99.6428
2313.1960	99.6243
2314.1604	99.6089
2315.1245	99.6004
2316.0889	99.6007
2317.0530	99.6083
2318.0173	99.6184
2318.9814	99.6243
2319.9458	99.6196
2320.9099	99.6011
2321.8743	99.5705
2322.8384	99.5333
2323.8027	99.4961
2324.7668	99.4638
2325.7312	99.4386
2326.6953	99.4209
2327.6597	99.4107
2328.6238	99.4087
2329.5881	99.4149
2330.5522	99.4276
2331.5166	99.442
2332.4807	99.4524
2333.4451	99.4543
2334.4092	99.4468
2335.3735	99.4327
2336.3376	99.4158
2337.3020	99.3986
2338.2661	99.3809
2339.2305	99.3616
2340.1946	99.3411
2341.1589	99.3224
2342.1230	99.3101
2343.0874	99.3068
2344.0515	99.3106
2345.0159	99.3159
2345.9800	99.3172
2346.9443	99.3125
2347.9084	99.3034
2348.8728	99.2924
2349.8369	99.2821
2350.8013	99.2742
2351.7654	99.2706
2352.7297	99.2739
2353.6938	99.287
2354.6582	99.3107
2355.6223	99.341
2356.5867	99.3695
2357.5508	99.3876
2358.5151	99.3916
2359.4792	99.3853
2360.4436	99.3767
2361.4077	99.3722
2362.3721	99.3715
2363.3362	99.3684
2364.3005	99.3567
2365.2646	99.3364
2366.2290	99.3151
2367.1931	99.3036
2368.1575	99.3088
2369.1216	99.3294
2370.0859	99.3578
2371.0500	99.3852
2372.0144	99.4069
2372.9785	99.4243
2373.9429	99.4417
2374.9070	99.4625
2375.8713	99.4862
2376.8354	99.5087
2377.7998	99.5251
2378.7639	99.5328
2379.7283	99.5325
2380.6924	99.5275
2381.6567	99.522
2382.6208	99.5188
2383.5852	99.5189
2384.5493	99.5222
2385.5137	99.5276
2386.4778	99.5346
2387.4421	99.543
2388.4063	99.553
2389.3706	99.5647
2390.3347	99.5779
2391.2991	99.5916
2392.2632	99.6043
2393.2275	99.6141
2394.1917	99.6201
2395.1560	99.6222
2396.1201	99.6223
2397.0845	99.6225
2398.0486	99.6249
2399.0129	99.6296
2399.9771	99.6353
2400.9414	99.64
2401.9055	99.6435
2402.8699	99.6471
2403.8340	99.6537
2404.7983	99.6649
2405.7625	99.6796
2406.7268	99.6944
2407.6909	99.7052
2408.6553	99.7103
2409.6194	99.7105
2410.5837	99.7084
2411.5479	99.7055
2412.5122	99.7014
2413.4763	99.6952
2414.4407	99.6876
2415.4048	99.6826
2416.3691	99.6856
2417.3333	99.6995
2418.2976	99.7218
2419.2617	99.7452
2420.2261	99.7614
2421.1902	99.7661
2422.1545	99.7612
2423.1187	99.7529
2424.0830	99.7467
2425.0471	99.7449
2426.0115	99.7457
2426.9756	99.7468
2427.9399	99.7476
2428.9041	99.75
2429.8684	99.7562
2430.8325	99.7664
2431.7969	99.778
2432.7610	99.7874
2433.7253	99.7924
2434.6895	99.7935
2435.6538	99.7935
2436.6179	99.7951
2437.5823	99.7991
2438.5464	99.8036
2439.5107	99.8053
2440.4749	99.8013
2441.4392	99.7907
2442.4033	99.7758
2443.3677	99.7613
2444.3318	99.7524
2445.2961	99.7533
2446.2603	99.7641
2447.2246	99.7813
2448.1887	99.799
2449.1531	99.8114
2450.1172	99.8158
2451.0815	99.8128
2452.0457	99.805
2453.0100	99.795
2453.9741	99.7843
2454.9385	99.7733
2455.9026	99.7634
2456.8669	99.7572
2457.8311	99.7581
2458.7954	99.7675
2459.7595	99.7836
2460.7239	99.8015
2461.6880	99.8157
2462.6523	99.8228
2463.6165	99.8229
2464.5808	99.8186
2465.5449	99.8125
2466.5093	99.8058
2467.4734	99.7982
2468.4377	99.79
2469.4019	99.7834
2470.3662	99.7819
2471.3303	99.7886
2472.2947	99.8032
2473.2588	99.8216
2474.2231	99.8371
2475.1873	99.8435
2476.1516	99.8387
2477.1157	99.8246
2478.0801	99.8064
2479.0442	99.7897
2480.0085	99.7778
2480.9727	99.7715
2481.9370	99.7694
2482.9011	99.7699
2483.8655	99.7718
2484.8296	99.7747
2485.7939	99.778
2486.7581	99.7806
2487.7224	99.7804
2488.6865	99.7755
2489.6509	99.7646
2490.6150	99.7488
2491.5793	99.7313
2492.5435	99.7161
2493.5078	99.707
2494.4719	99.7052
2495.4363	99.7087
2496.4004	99.7132
2497.3647	99.7142
2498.3289	99.7096
2499.2932	99.7012
2500.2573	99.6937
2501.2217	99.6927
2502.1858	99.7006
2503.1501	99.715
2504.1143	99.7296
2505.0786	99.737
2506.0427	99.7329
2507.0071	99.7181
2507.9712	99.698
2508.9355	99.6792
2509.8997	99.6672
2510.8640	99.664
2511.8281	99.6694
2512.7925	99.6816
2513.7566	99.6984
2514.7209	99.7165
2515.6851	99.7313
2516.6494	99.7378
2517.6135	99.7326
2518.5779	99.7164
2519.5420	99.6953
2520.5063	99.678
2521.4705	99.6726
2522.4348	99.6824
2523.3989	99.7046
2524.3633	99.7318
2525.3274	99.756
2526.2917	99.7721
2527.2559	99.7796
2528.2202	99.7816
2529.1843	99.7816
2530.1487	99.7815
2531.1128	99.7807
2532.0771	99.7772
2533.0413	99.77
2534.0056	99.7605
2534.9697	99.7524
2535.9341	99.7494
2536.8982	99.7532
2537.8625	99.7622
2538.8267	99.7729
2539.7910	99.7817
2540.7551	99.7868
2541.7195	99.788
2542.6836	99.7859
2543.6479	99.7803
2544.6121	99.7714
2545.5764	99.7608
2546.5405	99.7521
2547.5049	99.75
2548.4690	99.7573
2549.4333	99.7725
2550.3975	99.7901
2551.3618	99.8035
2552.3259	99.8079
2553.2903	99.803
2554.2544	99.792
2555.2188	99.779
2556.1829	99.7671
2557.1472	99.7576
2558.1113	99.751
2559.0757	99.7477
2560.0398	99.7477
2561.0042	99.75
2561.9683	99.7514
2562.9326	99.7481
2563.8967	99.737
2564.8611	99.7176
2565.8252	99.6923
2566.7896	99.6656
2567.7537	99.6417
2568.7180	99.6228
2569.6821	99.6088
2570.6465	99.5977
2571.6106	99.587
2572.5750	99.5757
2573.5391	99.5649
2574.5034	99.558
2575.4675	99.5591
2576.4319	99.5705
2577.3960	99.5912
2578.3604	99.6164
2579.3245	99.6396
2580.2888	99.6558
2581.2529	99.6639
2582.2173	99.666
2583.1814	99.6665
2584.1458	99.6686
2585.1099	99.673
2586.0742	99.6782
2587.0383	99.6818
2588.0027	99.682
2588.9668	99.6784
2589.9312	99.6709
2590.8953	99.6598
2591.8596	99.6451
2592.8237	99.6278
2593.7881	99.6099
2594.7522	99.5948
2595.7166	99.5863
2596.6807	99.5872
2597.6450	99.5981
2598.6091	99.6173
2599.5735	99.6409
2600.5376	99.6638
2601.5020	99.6811
2602.4661	99.6897
2603.4304	99.6895
2604.3945	99.6836
2605.3589	99.6771
2606.3230	99.6744
2607.2874	99.6769
2608.2515	99.6834
2609.2158	99.6911
2610.1799	99.698
2611.1443	99.7038
2612.1084	99.7087
2613.0728	99.7116
2614.0369	99.7097
2615.0012	99.6999
2615.9653	99.682
2616.9297	99.6598
2617.8938	99.6394
2618.8582	99.6255
2619.8223	99.6183
2620.7866	99.6144
2621.7507	99.6092
2622.7151	99.6015
2623.6792	99.594
2624.6436	99.5917
2625.6077	99.5981
2626.5720	99.6129
2627.5361	99.6325
2628.5005	99.6528
2629.4646	99.6705
2630.4290	99.6845
2631.3931	99.6944
2632.3574	99.7001
2633.3215	99.7019
2634.2859	99.7008
2635.2500	99.6993
2636.2144	99.6995
2637.1785	99.7021
2638.1428	99.7058
2639.1069	99.7079
2640.0713	99.7066
2641.0354	99.7022
2641.9998	99.6967
2642.9639	99.6923
2643.9282	99.6899
2644.8923	99.6883
2645.8567	99.6857
2646.8208	99.6807
2647.7852	99.6739
2648.7493	99.6669
2649.7136	99.662
2650.6777	99.6607
2651.6421	99.6635
2652.6062	99.6695
2653.5706	99.6768
2654.5347	99.6828
2655.4990	99.685
2656.4631	99.6816
2657.4275	99.6733
2658.3916	99.6626
2659.3560	99.6537
2660.3201	99.6496
2661.2844	99.651
2662.2485	99.6554
2663.2129	99.6586
2664.1770	99.6568
2665.1414	99.6487
2666.1055	99.636
2667.0698	99.6219
2668.0339	99.6097
2668.9983	99.601
2669.9624	99.5956
2670.9268	99.5921
2671.8909	99.5886
2672.8552	99.5827
2673.8193	99.5725
2674.7837	99.5563
2675.7478	99.5339
2676.7122	99.5067
2677.6763	99.4783
2678.6406	99.4536
2679.6047	99.437
2680.5691	99.4312
2681.5332	99.4356
2682.4976	99.4469
2683.4617	99.4596
2684.4260	99.4687
2685.3901	99.4714
2686.3545	99.4681
2687.3186	99.4626
2688.2830	99.4596
2689.2471	99.4626
2690.2114	99.4725
2691.1755	99.4879
2692.1399	99.5065
2693.1040	99.527
2694.0684	99.5491
2695.0325	99.5732
2695.9968	99.5984
2696.9609	99.6224
2697.9253	99.6421
2698.8894	99.6553
2699.8538	99.6619
2700.8179	99.6636
2701.7822	99.663
2702.7463	99.6622
2703.7107	99.6625
2704.6748	99.6641
2705.6392	99.6671
2706.6033	99.6711
2707.5676	99.6754
2708.5317	99.6791
2709.4961	99.6817
2710.4602	99.6836
2711.4246	99.6859
2712.3887	99.6895
2713.3530	99.6942
2714.3171	99.6985
2715.2815	99.7008
2716.2456	99.7016
2717.2100	99.703
2718.1741	99.7079
2719.1384	99.7172
2720.1025	99.728
2721.0669	99.735
2722.0310	99.7333
2722.9954	99.7216
2723.9595	99.7031
2724.9238	99.6838
2725.8879	99.6686
2726.8523	99.6598
2727.8164	99.6561
2728.7808	99.6551
2729.7449	99.6555
2730.7092	99.6575
2731.6733	99.6625
2732.6377	99.6704
2733.6018	99.6793
2734.5662	99.6858
2735.5303	99.6869
2736.4946	99.6818
2737.4587	99.6724
2738.4231	99.6619
2739.3872	99.6535
2740.3516	99.6492
2741.3157	99.6488
2742.2800	99.6515
2743.2441	99.6563
2744.2085	99.6624
2745.1726	99.669
2746.1370	99.6747
2747.1011	99.6773
2748.0654	99.6744
2749.0295	99.6651
2749.9939	99.6505
2750.9580	99.6337
2751.9224	99.6186
2752.8865	99.6081
2753.8508	99.6033
2754.8149	99.6029
2755.7793	99.6046
2756.7434	99.6065
2757.7078	99.6069
2758.6719	99.6051
2759.6362	99.6002
2760.6003	99.5914
2761.5647	99.579
2762.5288	99.5644
2763.4932	99.5502
2764.4573	99.5384
2765.4216	99.529
2766.3857	99.519
2767.3501	99.5037
2768.3142	99.4795
2769.2786	99.447
2770.2427	99.4116
2771.2070	99.3826
2772.1711	99.3689
2773.1355	99.3749
2774.0996	99.3989
2775.0640	99.4334
2776.0281	99.4684
2776.9924	99.4957
2777.9565	99.5115
2778.9209	99.5167
2779.8850	99.5151
2780.8494	99.5108
2781.8135	99.5064
2782.7778	99.5019
2783.7419	99.4967
2784.7063	99.4907
2785.6704	99.4858
2786.6348	99.4852
2787.5989	99.4925
2788.5632	99.5097
2789.5273	99.5361
2790.4917	99.5677
2791.4558	99.5988
2792.4202	99.6235
2793.3843	99.638
2794.3486	99.6414
2795.3127	99.6363
2796.2771	99.6268
2797.2412	99.6174
2798.2056	99.6107
2799.1697	99.6074
2800.1340	99.6063
2801.0981	99.6056
2802.0625	99.6039
2803.0266	99.6009
2803.9910	99.5977
2804.9551	99.5962
2805.9194	99.5985
2806.8835	99.6054
2807.8479	99.6162
2808.8120	99.6282
2809.7764	99.6387
2810.7405	99.6459
2811.7048	99.6503
2812.6689	99.6542
2813.6333	99.6597
2814.5974	99.6666
2815.5618	99.6726
2816.5259	99.6741
2817.4902	99.6693
2818.4543	99.6599
2819.4187	99.6502
2820.3828	99.6449
2821.3472	99.6468
2822.3113	99.6553
2823.2756	99.6671
2824.2397	99.6783
2825.2041	99.6859
2826.1682	99.6887
2827.1326	99.6873
2828.0967	99.6832
2829.0610	99.678
2830.0251	99.6736
2830.9895	99.6709
2831.9536	99.67
2832.9180	99.6706
2833.8821	99.6722
2834.8464	99.6747
2835.8105	99.6788
2836.7749	99.6847
2837.7390	99.6921
2838.7034	99.7002
2839.6675	99.7073
2840.6318	99.7124
2841.5959	99.7146
2842.5603	99.7134
2843.5244	99.7087
2844.4888	99.7006
2845.4529	99.6909
2846.4172	99.6821
2847.3813	99.6777
2848.3457	99.6797
2849.3098	99.6879
2850.2742	99.7
2851.2383	99.7126
2852.2026	99.7231
2853.1667	99.7303
2854.1311	99.7343
2855.0952	99.7353
2856.0596	99.7331
2857.0237	99.7276
2857.9880	99.719
2858.9521	99.7089
2859.9165	99.6995
2860.8806	99.6928
2861.8450	99.6896
2862.8091	99.6892
2863.7734	99.69
2864.7375	99.6906
2865.7019	99.6903
2866.6660	99.6895
2867.6304	99.6893
2868.5945	99.6906
2869.5588	99.6932
2870.5229	99.6954
2871.4873	99.6949
2872.4514	99.6895
2873.4158	99.6788
2874.3799	99.6646
2875.3442	99.6504
2876.3083	99.64
2877.2727	99.6356
2878.2368	99.6369
2879.2012	99.6419
2880.1653	99.6477
2881.1296	99.6522
2882.0938	99.6551
2883.0581	99.6569
2884.0222	99.6587
2884.9866	99.6608
2885.9507	99.6626
2886.9150	99.6626
2887.8792	99.6596
2888.8435	99.653
2889.8076	99.6432
2890.7720	99.6318
2891.7361	99.6212
2892.7004	99.6146
2893.6646	99.6149
2894.6289	99.6234
2895.5930	99.638
2896.5574	99.6533
2897.5215	99.6626
2898.4858	99.6614
2899.4500	99.65
2900.4143	99.6335
2901.3784	99.6192
2902.3428	99.6118
2903.3069	99.6104
2904.2712	99.61
2905.2354	99.6046
2906.1997	99.5922
2907.1638	99.5757
2908.1282	99.5613
2909.0923	99.5547
2910.0566	99.5577
2911.0208	99.5678
2911.9851	99.5806
2912.9492	99.5918
2913.9136	99.5993
2914.8777	99.6022
2915.8420	99.6012
2916.8062	99.5975
2917.7705	99.5932
2918.7346	99.5915
2919.6990	99.5952
2920.6631	99.6063
2921.6274	99.6238
2922.5916	99.6441
2923.5559	99.6623
2924.5200	99.6734
2925.4844	99.6749
2926.4485	99.6673
2927.4128	99.6532
2928.3770	99.6355
2929.3413	99.6165
2930.3054	99.5973
2931.2698	99.5784
2932.2339	99.5611
2933.1982	99.548
2934.1624	99.5426
2935.1267	99.5472
2936.0908	99.5613
2937.0552	99.5815
2938.0193	99.6026
2938.9836	99.6196
2939.9478	99.63
2940.9121	99.634
2941.8762	99.6338
2942.8406	99.6317
2943.8047	99.629
2944.7690	99.6255
2945.7332	99.6205
2946.6975	99.6134
2947.6616	99.6048
2948.6260	99.5958
2949.5901	99.5889
2950.5544	99.5864
2951.5186	99.5901
2952.4829	99.6003
2953.4470	99.6148
2954.4114	99.6292
2955.3755	99.6381
2956.3398	99.637
2957.3040	99.6253
2958.2683	99.6063
2959.2324	99.5862
2960.1968	99.5712
2961.1609	99.5647
2962.1252	99.5655
2963.0894	99.5694
2964.0537	99.5707
2965.0178	99.5651
2965.9822	99.5505
2966.9463	99.5274
2967.9106	99.4983
2968.8748	99.4668
2969.8391	99.4377
2970.8032	99.4151
2971.7676	99.4018
2972.7317	99.3977
2973.6960	99.3998
2974.6602	99.4041
2975.6245	99.4067
2976.5886	99.4062
2977.5530	99.4028
2978.5171	99.3979
2979.4814	99.3927
2980.4456	99.3876
2981.4099	99.3833
2982.3740	99.3804
2983.3384	99.38
2984.3025	99.3827
2985.2668	99.3874
2986.2310	99.391
2987.1953	99.3895
2988.1594	99.3794
2989.1238	99.3593
2990.0879	99.331
2991.0522	99.2985
2992.0164	99.2672
2992.9807	99.2415
2993.9448	99.2233
2994.9092	99.2119
2995.8733	99.204
2996.8376	99.1959
2997.8018	99.1842
2998.7661	99.1667
2999.7302	99.1424
3000.6946	99.1118
3001.6587	99.0776
3002.6230	99.0449
3003.5872	99.0208
3004.5515	99.0119
3005.5156	99.0216
3006.4800	99.0477
3007.4441	99.0828
3008.4084	99.1167
3009.3726	99.1407
3010.3369	99.1502
3011.3010	99.1455
3012.2654	99.1303
3013.2295	99.1089
3014.1938	99.0852
3015.1580	99.0618
3016.1223	99.0411
3017.0864	99.0247
3018.0508	99.0136
3019.0149	99.0066
3019.9792	99.0007
3020.9434	98.9915
3021.9077	98.9749
3022.8718	98.9487
3023.8362	98.9136
3024.8003	98.8727
3025.7646	98.8306
3026.7290	98.7924
3027.6931	98.7622
3028.6572	98.7424
3029.6216	98.7336
3030.5859	98.7337
3031.5500	98.738
3032.5142	98.7404
3033.4785	98.7346
3034.4429	98.7164
3035.4070	98.6851
3036.3711	98.6437
3037.3354	98.5974
3038.2998	98.5522
3039.2639	98.5132
3040.2280	98.4841
3041.1924	98.4671
3042.1567	98.4631
3043.1208	98.4711
3044.0850	98.4876
3045.0493	98.5056
3046.0137	98.5169
3046.9778	98.5138
3047.9419	98.4925
3048.9063	98.4537
3049.8706	98.4017
3050.8347	98.3413
3051.7988	98.2756
3052.7632	98.2047
3053.7275	98.1259
3054.6917	98.0358
3055.6558	97.9309
3056.6201	97.8096
3057.5845	97.6734
3058.5486	97.5281
3059.5127	97.3836
3060.4771	97.253
3061.4414	97.1487
3062.4055	97.0793
3063.3696	97.0465
3064.3340	97.0446
3065.2983	97.0626
3066.2625	97.0881
3067.2266	97.1121
3068.1909	97.1325
3069.1553	97.1544
3070.1194	97.1877
3071.0835	97.2432
3072.0479	97.3266
3073.0122	97.4361
3073.9763	97.5631
3074.9404	97.6966
3075.9048	97.828
3076.8691	97.9531
3077.8333	98.0706
3078.7974	98.1788
3079.7617	98.2727
3080.7261	98.3452
3081.6902	98.3913
3082.6543	98.4118
3083.6187	98.4131
3084.5830	98.4054
3085.5471	98.3978
3086.5112	98.3967
3087.4756	98.4055
3088.4399	98.4254
3089.4041	98.4557
3090.3682	98.4935
3091.3325	98.5338
3092.2969	98.5706
3093.2610	98.6003
3094.2251	98.6235
3095.1895	98.6444
3096.1538	98.6678
3097.1179	98.6953
3098.0820	98.7241
3099.0464	98.7489
3100.0107	98.7658
3100.9749	98.7747
3101.9390	98.7796
3102.9033	98.7857
3103.8677	98.7964
3104.8318	98.8128
3105.7959	98.8338
3106.7603	98.8577
3107.7246	98.8835
3108.6887	98.9111
3109.6528	98.9404
3110.6172	98.9716
3111.5815	99.0042
3112.5457	99.0371
3113.5098	99.0683
3114.4741	99.0954
3115.4385	99.1168
3116.4026	99.1322
3117.3667	99.1429
3118.3311	99.1507
3119.2954	99.1566
3120.2595	99.1602
3121.2236	99.1607
3122.1880	99.1584
3123.1523	99.1561
3124.1165	99.1583
3125.0806	99.1689
3126.0449	99.1883
3127.0093	99.2125
3127.9734	99.2349
3128.9375	99.2501
3129.9019	99.2563
3130.8662	99.2563
3131.8303	99.2557
3132.7944	99.2594
3133.7588	99.2693
3134.7231	99.2839
3135.6873	99.2998
3136.6514	99.3142
3137.6157	99.3256
3138.5801	99.3341
3139.5442	99.3399
3140.5083	99.3431
3141.4727	99.3441
3142.4370	99.3443
3143.4011	99.3462
3144.3652	99.3519
3145.3296	99.3607
3146.2939	99.3682
3147.2581	99.3673
3148.2222	99.3525
3149.1865	99.3238
3150.1509	99.2888
3151.1150	99.2603
3152.0791	99.2508
3153.0435	99.2663
3154.0078	99.3037
3154.9719	99.3517
3155.9360	99.3959
3156.9004	99.4248
3157.8647	99.4333
3158.8289	99.4238
3159.7930	99.4044
3160.7573	99.3856
3161.7217	99.3767
3162.6858	99.3828
3163.6499	99.4023
3164.6143	99.4271
3165.5786	99.446
3166.5427	99.4503
3167.5068	99.4383
3168.4712	99.4176
3169.4355	99.4006
3170.3997	99.3979
3171.3638	99.4119
3172.3281	99.4355
3173.2925	99.4567
3174.2566	99.466
3175.2207	99.4611
3176.1851	99.4478
3177.1494	99.4353
3178.1135	99.4306
3179.0776	99.4347
3180.0420	99.4431
3181.0063	99.449
3181.9705	99.4479
3182.9346	99.4394
3183.8989	99.4277
3184.8633	99.4195
3185.8274	99.4206
3186.7915	99.4335
3187.7559	99.4558
3188.7202	99.4812
3189.6843	99.5015
3190.6484	99.5104
3191.6128	99.5054
3192.5771	99.4884
3193.5413	99.4648
3194.5054	99.4417
3195.4697	99.4258
3196.4341	99.4224
3197.3982	99.4333
3198.3623	99.4567
3199.3267	99.4867
3200.2910	99.5155
3201.2551	99.5365
3202.2192	99.5465
3203.1836	99.5471
3204.1479	99.5429
3205.1121	99.5388
3206.0762	99.5376
3207.0405	99.5398
3208.0049	99.544
3208.9690	99.5488
3209.9331	99.5529
3210.8975	99.555
3211.8618	99.5542
3212.8259	99.5508
3213.7900	99.5472
3214.7544	99.5473
3215.7188	99.5546
3216.6829	99.5688
3217.6470	99.5848
3218.6113	99.595
3219.5757	99.5935
3220.5398	99.5805
3221.5039	99.562
3222.4683	99.5466
3223.4326	99.5403
3224.3967	99.5428
3225.3608	99.5494
3226.3252	99.5551
3227.2896	99.5589
3228.2537	99.5643
3229.2178	99.576
3230.1821	99.5953
3231.1465	99.618
3232.1106	99.6364
3233.0747	99.6444
3234.0391	99.642
3235.0034	99.6356
3235.9675	99.6336
3236.9316	99.641
3237.8960	99.6562
3238.8604	99.6719
3239.8245	99.6805
3240.7886	99.6791
3241.7529	99.671
3242.7173	99.6629
3243.6814	99.66
3244.6455	99.6621
3245.6099	99.6642
3246.5742	99.6607
3247.5383	99.65
3248.5024	99.6364
3249.4668	99.627
3250.4312	99.6277
3251.3953	99.6391
3252.3594	99.6566
3253.3237	99.6738
3254.2881	99.6862
3255.2522	99.6931
3256.2163	99.6966
3257.1807	99.6984
3258.1450	99.6988
3259.1091	99.696
3260.0732	99.6888
3261.0376	99.6771
3262.0020	99.6627
3262.9661	99.647
3263.9302	99.6305
3264.8945	99.6131
3265.8589	99.5957
3266.8230	99.5821
3267.7871	99.5781
3268.7515	99.5892
3269.7158	99.6161
3270.6799	99.6532
3271.6440	99.6894
3272.6084	99.7131
3273.5728	99.7178
3274.5369	99.7054
3275.5010	99.6852
3276.4653	99.6681
3277.4297	99.6613
3278.3938	99.6652
3279.3579	99.6755
3280.3223	99.6873
3281.2866	99.6987
3282.2507	99.7108
3283.2148	99.7251
3284.1792	99.74
3285.1436	99.7508
3286.1077	99.7518
3287.0718	99.7404
3288.0361	99.7191
3289.0005	99.6939
3289.9646	99.6716
3290.9287	99.6563
3291.8931	99.649
3292.8574	99.6485
3293.8215	99.6537
3294.7856	99.6639
3295.7500	99.6785
3296.7144	99.6958
3297.6785	99.7129
3298.6426	99.726
3299.6069	99.7316
3300.5713	99.7284
3301.5354	99.7181
3302.4995	99.7049
3303.4639	99.6946
3304.4282	99.6917
3305.3923	99.6972
3306.3564	99.7077
3307.3208	99.7167
3308.2852	99.7187
3309.2493	99.7115
3310.2134	99.698
3311.1777	99.6844
3312.1421	99.6767
3313.1062	99.6788
3314.0703	99.6921
3315.0347	99.7149
3315.9990	99.743
3316.9631	99.7686
3317.9272	99.7823
3318.8916	99.7757
3319.8560	99.7475
3320.8201	99.706
3321.7842	99.6672
3322.7485	99.6474
3323.7129	99.6539
3324.6770	99.6808
3325.6411	99.7117
3326.6055	99.729
3327.5698	99.7228
3328.5339	99.6962
3329.4980	99.6625
3330.4624	99.6374
3331.4268	99.6316
3332.3909	99.6467
3333.3550	99.675
3334.3193	99.7042
3335.2837	99.7226
3336.2478	99.7244
3337.2119	99.7119
3338.1763	99.6936
3339.1406	99.68
3340.1047	99.6779
3341.0688	99.6874
3342.0332	99.7026
3342.9976	99.7151
3343.9617	99.7186
3344.9258	99.7113
3345.8901	99.6954
3346.8545	99.6749
3347.8186	99.6536
3348.7827	99.6347
3349.7471	99.6209
3350.7114	99.6148
3351.6755	99.6183
3352.6396	99.6316
3353.6040	99.6526
3354.5684	99.6777
3355.5325	99.7027
3356.4966	99.7238
3357.4609	99.7379
3358.4253	99.7428
3359.3894	99.7372
3360.3535	99.7213
3361.3179	99.6979
3362.2822	99.6718
3363.2463	99.6486
3364.2104	99.6334
3365.1748	99.6288
3366.1392	99.6355
3367.1033	99.6533
3368.0674	99.6813
3369.0317	99.718
3369.9961	99.7588
3370.9602	99.796
3371.9243	99.8197
3372.8887	99.8223
3373.8530	99.8027
3374.8171	99.768
3375.7813	99.7301
3376.7456	99.6998
3377.7100	99.6817
3378.6741	99.6733
3379.6382	99.6687
3380.6025	99.6636
3381.5669	99.6576
3382.5310	99.653
3383.4951	99.6507
3384.4595	99.6482
3385.4238	99.6417
3386.3879	99.6292
3387.3521	99.6133
3388.3164	99.5998
3389.2808	99.5935
3390.2449	99.5945
3391.2090	99.5977
3392.1733	99.5962
3393.1377	99.586
3394.1018	99.5682
3395.0659	99.5484
3396.0303	99.5331
3396.9946	99.5257
3397.9587	99.5252
3398.9229	99.5266
3399.8872	99.5232
3400.8516	99.5095
3401.8157	99.4841
3402.7798	99.4514
3403.7441	99.4207
3404.7085	99.4028
3405.6726	99.4051
3406.6367	99.4269
3407.6011	99.4591
3408.5654	99.4879
3409.5295	99.5015
3410.4937	99.4956
3411.4580	99.4747
3412.4224	99.4489
3413.3865	99.4271
3414.3506	99.4128
3415.3149	99.4042
3416.2793	99.3976
3417.2434	99.3923
3418.2075	99.3919
3419.1719	99.4016
3420.1362	99.4227
3421.1003	99.4504
3422.0645	99.4747
3423.0288	99.4877
3423.9932	99.4889
3424.9573	99.4854
3425.9214	99.4872
3426.8857	99.4999
3427.8501	99.5207
3428.8142	99.5398
3429.7783	99.5479
3430.7427	99.5428
3431.7070	99.5318
3432.6711	99.5276
3433.6353	99.5403
3434.5996	99.5708
3435.5640	99.61
3436.5281	99.6432
3437.4922	99.6584
3438.4565	99.6528
3439.4209	99.6346
3440.3850	99.6185
3441.3491	99.6179
3442.3135	99.637
3443.2778	99.669
3444.2419	99.6994
3445.2061	99.7147
3446.1704	99.7105
3447.1348	99.6937
3448.0989	99.6779
3449.0630	99.6741
3450.0273	99.6843
3450.9917	99.7016
3451.9558	99.7153
3452.9199	99.7178
3453.8843	99.708
3454.8486	99.6912
3455.8127	99.6751
3456.7769	99.6655
3457.7412	99.6647
3458.7056	99.6721
3459.6697	99.685
3460.6338	99.6999
3461.5981	99.7132
3462.5625	99.7213
3463.5266	99.7228
3464.4907	99.7188
3465.4551	99.7134
3466.4194	99.7113
3467.3835	99.7158
3468.3477	99.7262
3469.3120	99.739
3470.2764	99.7487
3471.2405	99.751
3472.2046	99.7439
3473.1689	99.7276
3474.1333	99.7047
3475.0974	99.6788
3476.0615	99.6544
3477.0259	99.6362
3477.9902	99.628
3478.9543	99.6322
3479.9185	99.6482
3480.8828	99.6729
3481.8472	99.7001
3482.8113	99.7227
3483.7754	99.7341
3484.7397	99.7314
3485.7041	99.7166
3486.6682	99.6969
3487.6323	99.6821
3488.5967	99.68
3489.5610	99.6913
3490.5251	99.7091
3491.4893	99.7222
3492.4536	99.7223
3493.4180	99.7083
3494.3821	99.6872
3495.3462	99.6683
3496.3105	99.6571
3497.2749	99.6518
3498.2390	99.6453
3499.2031	99.6317
3500.1675	99.6109
3501.1318	99.5896
3502.0959	99.5768
3503.0601	99.5774
3504.0244	99.5885
3504.9888	99.6011
3505.9529	99.606
3506.9170	99.5991
3507.8813	99.5835
3508.8457	99.5673
3509.8098	99.559
3510.7739	99.5634
3511.7383	99.5788
3512.7026	99.5994
3513.6667	99.619
3514.6309	99.6334
3515.5952	99.6406
3516.5596	99.6392
3517.5237	99.6271
3518.4878	99.6021
3519.4521	99.5651
3520.4165	99.523
3521.3806	99.4881
3522.3447	99.4736
3523.3091	99.486
3524.2734	99.5208
3525.2375	99.5631
3526.2017	99.5956
3527.1660	99.6068
3528.1304	99.5955
3529.0945	99.5703
3530.0586	99.5436
3531.0229	99.5249
3531.9873	99.5177
3532.9514	99.5198
3533.9155	99.5253
3534.8799	99.5283
3535.8442	99.5258
3536.8083	99.5192
3537.7725	99.5138
3538.7368	99.5155
3539.7012	99.5259
3540.6653	99.5408
3541.6294	99.5504
3542.5938	99.5436
3543.5581	99.5143
3544.5222	99.4665
3545.4863	99.4154
3546.4507	99.3801
3547.4150	99.3729
3548.3792	99.3931
3549.3433	99.4292
3550.3076	99.4655
3551.2720	99.4893
3552.2361	99.4961
3553.2002	99.4903
3554.1646	99.4819
3555.1289	99.4794
3556.0930	99.4863
3557.0571	99.5014
3558.0215	99.5215
3558.9858	99.5434
3559.9500	99.5639
3560.9141	99.5781
3561.8784	99.5793
3562.8428	99.5607
3563.8069	99.5191
3564.7710	99.4607
3565.7354	99.4039
3566.6997	99.374
3567.6638	99.3857
3568.6279	99.4318
3569.5923	99.4915
3570.5566	99.5454
3571.5208	99.5825
3572.4849	99.5994
3573.4492	99.5977
3574.4136	99.5813
3575.3777	99.5557
3576.3418	99.526
3577.3062	99.4974
3578.2705	99.4748
3579.2346	99.463
3580.1987	99.4662
3581.1631	99.486
3582.1274	99.5203
3583.0916	99.5626
3584.0557	99.6025
3585.0200	99.6275
3585.9844	99.6271
3586.9485	99.6006
3587.9126	99.5608
3588.8770	99.5262
3589.8413	99.5081
3590.8054	99.508
3591.7695	99.5218
3592.7339	99.5445
3593.6982	99.5717
3594.6624	99.5991
3595.6265	99.6214
3596.5908	99.632
3597.5552	99.6252
3598.5193	99.5992
3599.4834	99.5581
3600.4478	99.5129
3601.4121	99.4772
3602.3762	99.4611
3603.3403	99.4669
3604.3047	99.4899
3605.2690	99.5194
3606.2332	99.5416
3607.1973	99.5427
3608.1616	99.5157
3609.1260	99.4654
3610.0901	99.4075
3611.0542	99.3609
3612.0186	99.3389
3612.9829	99.3424
3613.9470	99.3609
3614.9111	99.3778
3615.8755	99.3806
3616.8398	99.3673
3617.8040	99.3497
3618.7681	99.3466
3619.7324	99.3702
3620.6968	99.415
3621.6609	99.4618
3622.6250	99.4925
3623.5894	99.4977
3624.5537	99.477
3625.5178	99.4365
3626.4819	99.3885
3627.4463	99.3507
3628.4106	99.3396
3629.3748	99.3569
3630.3389	99.3898
3631.3032	99.4248
3632.2676	99.456
3633.2317	99.4826
3634.1958	99.5041
3635.1602	99.519
3636.1245	99.5259
3637.0886	99.5256
3638.0527	99.5216
3639.0171	99.5174
3639.9814	99.5145
3640.9456	99.5105
3641.9097	99.5016
3642.8740	99.4848
3643.8384	99.4594
3644.8025	99.4269
3645.7666	99.3887
3646.7310	99.3474
3647.6953	99.3083
3648.6594	99.2826
3649.6235	99.2804
3650.5879	99.301
3651.5522	99.3351
3652.5164	99.3726
3653.4805	99.4068
3654.4448	99.433
3655.4092	99.4485
3656.3733	99.4532
3657.3374	99.4492
3658.3018	99.4394
3659.2661	99.426
3660.2302	99.4113
3661.1943	99.3988
3662.1587	99.394
3663.1230	99.4007
3664.0872	99.4182
3665.0513	99.4401
3666.0156	99.4566
3666.9800	99.4586
3667.9441	99.4418
3668.9082	99.4119
3669.8726	99.3824
3670.8369	99.3632
3671.8010	99.353
3672.7651	99.3435
3673.7295	99.3286
3674.6938	99.3122
3675.6580	99.3067
3676.6221	99.3227
3677.5864	99.3578
3678.5508	99.4019
3679.5149	99.4468
3680.4790	99.4893
3681.4434	99.5292
3682.4077	99.5662
3683.3718	99.5976
3684.3359	99.6193
3685.3003	99.6267
3686.2646	99.6181
3687.2288	99.5977
3688.1929	99.5776
3689.1572	99.5739
3690.1216	99.5941
3691.0857	99.6324
3692.0498	99.6765
3693.0142	99.7158
3693.9785	99.7433
3694.9426	99.7547
3695.9067	99.7486
3696.8711	99.7274
3697.8354	99.6974
3698.7996	99.6667
3699.7637	99.6419
3700.7280	99.6254
3701.6924	99.6152
3702.6565	99.6079
3703.6206	99.6021
3704.5850	99.5979
3705.5493	99.5948
3706.5134	99.5887
3707.4775	99.5727
3708.4419	99.5409
3709.4063	99.4955
3710.3704	99.4519
3711.3345	99.4316
3712.2988	99.4426
3713.2632	99.4737
3714.2273	99.5066
3715.1914	99.5298
3716.1558	99.5404
3717.1201	99.5409
3718.0842	99.5352
3719.0483	99.5248
3720.0127	99.5098
3720.9771	99.4905
3721.9412	99.4716
3722.9053	99.4617
3723.8696	99.4697
3724.8340	99.4983
3725.7981	99.5421
3726.7622	99.5894
3727.7266	99.6286
3728.6909	99.6508
3729.6550	99.6492
3730.6191	99.6183
3731.5835	99.5561
3732.5479	99.4709
3733.5120	99.3881
3734.4761	99.3442
3735.4404	99.361
3736.4048	99.425
3737.3689	99.5002
3738.3330	99.5572
3739.2974	99.5852
3740.2617	99.5875
3741.2258	99.5744
3742.1899	99.5577
3743.1543	99.5465
3744.1187	99.5405
3745.0828	99.5301
3746.0469	99.5078
3747.0112	99.4769
3747.9756	99.4508
3748.9397	99.4479
3749.9038	99.4816
3750.8682	99.5437
3751.8325	99.6032
3752.7966	99.6328
3753.7607	99.6286
3754.7251	99.6028
3755.6895	99.5714
3756.6536	99.5481
3757.6177	99.5408
3758.5820	99.5492
3759.5464	99.5653
3760.5105	99.5807
3761.4746	99.5923
3762.4390	99.6027
3763.4033	99.6154
3764.3674	99.6305
3765.3315	99.6418
3766.2959	99.6388
3767.2603	99.6136
3768.2244	99.569
3769.1885	99.5214
3770.1528	99.4935
3771.1172	99.5004
3772.0813	99.5395
3773.0454	99.5937
3774.0098	99.6417
3774.9741	99.668
3775.9382	99.6672
3776.9023	99.6461
3777.8667	99.6212
3778.8311	99.6094
3779.7952	99.6181
3780.7593	99.6406
3781.7236	99.6634
3782.6880	99.6756
3783.6521	99.6737
3784.6162	99.6622
3785.5806	99.6498
3786.5449	99.6449
3787.5090	99.651
3788.4731	99.6649
3789.4375	99.6796
3790.4019	99.6872
3791.3660	99.6838
3792.3301	99.6707
3793.2944	99.6544
3794.2588	99.643
3795.2229	99.6403
3796.1870	99.6428
3797.1514	99.641
3798.1157	99.6255
3799.0798	99.5935
3800.0439	99.5531
3801.0083	99.5192
3801.9727	99.504
3802.9368	99.508
3803.9009	99.5231
3804.8652	99.5411
3805.8296	99.5578
3806.7937	99.5725
3807.7578	99.5852
3808.7222	99.5956
3809.6865	99.6038
3810.6506	99.611
3811.6147	99.6191
3812.5791	99.6295
3813.5435	99.6405
3814.5076	99.646
3815.4717	99.6375
3816.4360	99.6099
3817.4004	99.5639
3818.3645	99.5049
3819.3286	99.4403
3820.2930	99.3792
3821.2573	99.3319
3822.2214	99.3063
3823.1855	99.3053
3824.1499	99.327
3825.1143	99.3663
3826.0784	99.4138
3827.0425	99.4563
3828.0068	99.48
3828.9712	99.4778
3829.9353	99.4541
3830.8994	99.4239
3831.8638	99.405
3832.8281	99.4086
3833.7922	99.4341
3834.7563	99.4709
3835.7207	99.5058
3836.6851	99.5293
3837.6492	99.5397
3838.6133	99.5406
3839.5776	99.5356
3840.5420	99.5261
3841.5061	99.5143
3842.4702	99.5049
3843.4346	99.504
3844.3989	99.5146
3845.3630	99.5329
3846.3271	99.5496
3847.2915	99.5553
3848.2559	99.545
3849.2200	99.5209
3850.1841	99.4921
3851.1484	99.4743
3852.1128	99.482
3853.0769	99.5122
3854.0410	99.5388
3855.0054	99.5418
3855.9697	99.5251
3856.9338	99.5039
3857.8979	99.4912
3858.8623	99.4941
3859.8267	99.5131
3860.7908	99.5423
3861.7549	99.5696
3862.7192	99.5817
3863.6836	99.5721
3864.6477	99.5458
3865.6118	99.5155
3866.5762	99.4936
3867.5405	99.4874
3868.5046	99.498
3869.4688	99.5211
3870.4331	99.5497
3871.3975	99.5778
3872.3616	99.6021
3873.3257	99.6201
3874.2900	99.6287
3875.2544	99.6242
3876.2185	99.6056
3877.1826	99.5767
3878.1470	99.5478
3879.1113	99.5324
3880.0754	99.5403
3881.0396	99.5704
3882.0039	99.6106
3882.9683	99.6458
3883.9324	99.6659
3884.8965	99.669
3885.8608	99.6593
3886.8252	99.6413
3887.7893	99.6176
3888.7534	99.5887
3889.7178	99.558
3890.6821	99.5331
3891.6462	99.5234
3892.6104	99.5332
3893.5747	99.5578
3894.5391	99.5874
3895.5032	99.6136
3896.4673	99.6312
3897.4316	99.6368
3898.3960	99.6273
3899.3601	99.6006
3900.3242	99.559
3901.2886	99.5127
3902.2529	99.4783
3903.2170	99.4708
3904.1812	99.4945
3905.1455	99.5395
3906.1099	99.5899
3907.0740	99.6337
3908.0381	99.6675
3909.0024	99.6938
3909.9668	99.7167
3910.9309	99.7364
3911.8950	99.7481
3912.8594	99.745
3913.8237	99.7236
3914.7878	99.6888
3915.7520	99.6543
3916.7163	99.6369
3917.6807	99.6456
3918.6448	99.6744
3919.6089	99.7059
3920.5732	99.7229
3921.5376	99.718
3922.5017	99.6966
3923.4658	99.6726
3924.4302	99.6599
3925.3945	99.6629
3926.3586	99.6739
3927.3228	99.6784
3928.2871	99.6643
3929.2515	99.6291
3930.2156	99.5819
3931.1797	99.5408
3932.1440	99.523
3933.1084	99.5353
3934.0725	99.5711
3935.0366	99.6152
3936.0010	99.6523
3936.9653	99.6728
3937.9294	99.6746
3938.8936	99.663
3939.8579	99.6479
3940.8223	99.6393
3941.7864	99.6425
3942.7505	99.655
3943.7148	99.6688
3944.6792	99.6754
3945.6433	99.6711
3946.6074	99.6582
3947.5718	99.643
3948.5361	99.6321
3949.5002	99.6289
3950.4644	99.6327
3951.4287	99.6408
3952.3931	99.6505
3953.3572	99.6604
3954.3213	99.6697
3955.2856	99.677
3956.2500	99.6804
3957.2141	99.6787
3958.1782	99.6728
3959.1426	99.6651
3960.1069	99.6583
3961.0710	99.6538
3962.0352	99.6507
3962.9995	99.6479
3963.9639	99.6447
3964.9280	99.642
3965.8921	99.6406
3966.8564	99.64
3967.8208	99.638
3968.7849	99.6332
3969.7490	99.6273
3970.7134	99.6257
3971.6777	99.6356
3972.6418	99.6604
3973.6060	99.6958
3974.5703	99.7302
3975.5347	99.75
3976.4988	99.7468
3977.4629	99.7221
3978.4272	99.6867
3979.3916	99.6544
3980.3557	99.6357
3981.3198	99.6335
3982.2842	99.6435
3983.2485	99.6584
3984.2126	99.6714
3985.1768	99.6789
3986.1411	99.6796
3987.1055	99.6735
3988.0696	99.6617
3989.0337	99.6473
3989.9980	99.6354
3990.9624	99.6327
3991.9265	99.6429
3992.8906	99.6643
3993.8550	99.6885
3994.8193	99.7038
3995.7834	99.7011
3996.7476	99.6794
3997.7119	99.6473
3998.6763	99.618
3999.6404	99.6027
4000.6045	99.6037
4001.5688	99.6145
4002.5332	99.624
4003.4973	99.6248
4004.4614	99.6175
4005.4258	99.6097
4006.3901	99.6096
4007.3542	99.6195
4008.3184	99.634
4009.2827	99.6437
4010.2471	99.6429
4011.2112	99.6335
4012.1753	99.6236
4013.1396	99.6211
4014.1040	99.628
4015.0681	99.6393
4016.0322	99.647
4016.9966	99.6463
4017.9609	99.6386
4018.9250	99.6306
4019.8892	99.6289
4020.8535	99.6355
4021.8179	99.6465
4022.7820	99.6553
4023.7461	99.6563
4024.7104	99.6486
4025.6748	99.6355
4026.6389	99.623
4027.6030	99.6156
4028.5674	99.6147
4029.5317	99.6185
4030.4958	99.6241
4031.4600	99.6294
4032.4243	99.6339
4033.3887	99.6377
4034.3528	99.6403
4035.3169	99.6395
4036.2813	99.6329
4037.2456	99.6195
4038.2097	99.602
4039.1738	99.5863
4040.1382	99.579
4041.1025	99.5838
4042.0667	99.6
4043.0308	99.6214
4043.9951	99.6389
4044.9595	99.6436
4045.9236	99.6299
4046.8877	99.5987
4047.8521	99.557
4048.8164	99.516
4049.7808	99.4865
4050.7446	99.4737
4051.7090	99.4751
4052.6733	99.4814
4053.6377	99.4816
4054.6016	99.4684
4055.5659	99.4412
4056.5303	99.4048
4057.4946	99.3664
4058.4585	99.3321
4059.4229	99.3065
4060.3872	99.2932
4061.3516	99.2951
4062.3154	99.3118
4063.2798	99.3378
4064.2441	99.3623
4065.2085	99.3728
4066.1724	99.3621
4067.1367	99.3334
4068.1011	99.3001
4069.0654	99.2794
4070.0293	99.2833
4070.9937	99.3117
4071.9580	99.3528
4072.9224	99.3906
4073.8862	99.4135
4074.8506	99.421
4075.8149	99.422
4076.7793	99.4279
4077.7432	99.4445
4078.7075	99.4685
4079.6719	99.4905
4080.6362	99.5018
4081.6001	99.4996
4082.5645	99.4879
4083.5288	99.4734
4084.4932	99.4607
4085.4570	99.4504
4086.4214	99.4414
4087.3857	99.4332
4088.3501	99.4274
4089.3140	99.4263
4090.2783	99.4306
4091.2427	99.4387
4092.2070	99.4484
4093.1709	99.4586
4094.1353	99.4698
4095.0996	99.4824
4096.0640	99.4941
4097.0278	99.5008
4097.9922	99.4993
4098.9565	99.491
4099.9209	99.4823
4100.8848	99.4818
4101.8491	99.4953
4102.8135	99.5224
4103.7778	99.5562
4104.7417	99.5872
4105.7061	99.6071
4106.6704	99.6126
4107.6348	99.6054
4108.5986	99.5907
4109.5630	99.5755
4110.5273	99.5653
4111.4917	99.563
4112.4556	99.5678
4113.4199	99.5765
4114.3843	99.5858
4115.3486	99.5946
4116.3125	99.6041
4117.2769	99.6165
4118.2412	99.6322
4119.2056	99.6484
4120.1694	99.6605
4121.1338	99.6649
4122.0981	99.6613
4123.0625	99.6535
4124.0264	99.6469
4124.9907	99.6454
4125.9551	99.6491
4126.9194	99.6546
4127.8833	99.6573
4128.8477	99.6536
4129.8120	99.6433
4130.7764	99.629
4131.7402	99.6153
4132.7046	99.6064
4133.6689	99.6054
4134.6333	99.6129
4135.5972	99.628
4136.5615	99.6483
4137.5259	99.6705
4138.4902	99.6901
4139.4541	99.7029
4140.4185	99.7056
4141.3828	99.6974
4142.3472	99.6807
4143.3110	99.66
4144.2754	99.6403
4145.2397	99.6259
4146.2041	99.6193
4147.1680	99.6214
4148.1323	99.6315
4149.0967	99.6472
4150.0610	99.6641
4151.0249	99.6769
4151.9893	99.6817
4152.9536	99.6778
4153.9180	99.6687
4154.8818	99.6591
4155.8462	99.6523
4156.8105	99.6476
4157.7749	99.6412
4158.7388	99.6296
4159.7031	99.6124
4160.6675	99.5933
4161.6318	99.5776
4162.5957	99.5692
4163.5601	99.569
4164.5244	99.5753
4165.4888	99.586
4166.4526	99.6
4167.4170	99.6171
4168.3813	99.6366
4169.3457	99.6558
4170.3096	99.6709
4171.2739	99.6788
4172.2383	99.6789
4173.2026	99.6743
4174.1665	99.6699
4175.1309	99.6701
4176.0952	99.6767
4177.0596	99.6878
4178.0234	99.6988
4178.9878	99.7042
4179.9521	99.6999
4180.9165	99.6849
4181.8804	99.6615
4182.8447	99.6351
4183.8091	99.6129
4184.7734	99.6015
4185.7373	99.6043
4186.7017	99.6199
4187.6660	99.6421
4188.6304	99.6626
4189.5942	99.6743
4190.5586	99.6748
4191.5229	99.666
4192.4873	99.6521
4193.4512	99.6367
4194.4155	99.6214
4195.3799	99.6073
4196.3442	99.5965
4197.3081	99.5925
4198.2725	99.5987
4199.2368	99.615
4200.2012	99.6363
4201.1650	99.6545
4202.1294	99.6622
4203.0938	99.657
4204.0581	99.6419
4205.0220	99.6235
4205.9863	99.6084
4206.9507	99.601
4207.9150	99.6028
4208.8789	99.613
4209.8433	99.6291
4210.8076	99.6471
4211.7720	99.6617
4212.7358	99.6685
4213.7002	99.6661
4214.6646	99.6579
4215.6289	99.651
4216.5928	99.6519
4217.5571	99.662
4218.5215	99.676
4219.4858	99.6847
4220.4497	99.6807
4221.4141	99.6637
4222.3784	99.6414
4223.3428	99.6255
4224.3066	99.624
4225.2710	99.6368
4226.2354	99.6559
4227.1997	99.6712
4228.1636	99.6768
4229.1279	99.6748
4230.0923	99.672
4231.0566	99.6746
4232.0205	99.6831
4232.9849	99.6924
4233.9492	99.6962
4234.9136	99.6916
4235.8774	99.6809
4236.8418	99.669
4237.8062	99.659
4238.7705	99.6503
4239.7344	99.6398
4240.6987	99.6253
4241.6631	99.6086
4242.6274	99.5947
4243.5913	99.5884
4244.5557	99.5914
4245.5200	99.6001
4246.4844	99.6082
4247.4482	99.6092
4248.4126	99.5993
4249.3770	99.5792
4250.3413	99.5531
4251.3052	99.5281
4252.2695	99.5125
4253.2339	99.5129
4254.1982	99.5327
4255.1621	99.5696
4256.1265	99.6159
4257.0908	99.6602
4258.0552	99.6912
4259.0190	99.7016
4259.9834	99.6904
4260.9478	99.6631
4261.9121	99.6294
4262.8760	99.5993
4263.8403	99.5804
4264.8047	99.576
4265.7690	99.585
4266.7329	99.6038
4267.6973	99.6275
4268.6616	99.6514
4269.6260	99.6718
4270.5898	99.6858
4271.5542	99.6917
4272.5186	99.6899
4273.4829	99.6823
4274.4468	99.6726
4275.4111	99.6647
4276.3755	99.662
4277.3398	99.6665
4278.3037	99.6781
4279.2681	99.6955
4280.2324	99.715
4281.1968	99.7316
4282.1606	99.7393
4283.1250	99.7341
4284.0894	99.7159
4285.0537	99.6901
4286.0176	99.6655
4286.9819	99.6507
4287.9463	99.6497
4288.9106	99.6596
4289.8745	99.6726
4290.8389	99.6803
4291.8032	99.6783
4292.7676	99.6681
4293.7314	99.6553
4294.6958	99.6464
4295.6602	99.6452
4296.6245	99.6511
4297.5884	99.66
4298.5527	99.6669
4299.5171	99.6684
4300.4814	99.6648
4301.4453	99.6603
4302.4097	99.661
4303.3740	99.6713
4304.3384	99.6903
4305.3022	99.7109
4306.2666	99.7224
4307.2310	99.7171
4308.1953	99.6957
4309.1592	99.669
4310.1235	99.6524
4311.0879	99.6572
4312.0522	99.6839
4313.0161	99.7213
4313.9805	99.7528
4314.9448	99.765
4315.9092	99.7548
4316.8730	99.729
4317.8374	99.6997
4318.8018	99.6778
4319.7661	99.6678
4320.7300	99.668
4321.6943	99.6724
4322.6587	99.6745
4323.6230	99.6708
4324.5869	99.6615
4325.5513	99.6502
4326.5156	99.6417
4327.4800	99.6404
4328.4438	99.648
4329.4082	99.6629
4330.3726	99.6812
4331.3369	99.6967
4332.3008	99.7034
4333.2651	99.6969
4334.2295	99.6771
4335.1938	99.6495
4336.1577	99.6242
4337.1221	99.6122
4338.0864	99.6195
4339.0508	99.644
4340.0146	99.6752
4340.9790	99.6998
4341.9434	99.7079
4342.9077	99.6979
4343.8716	99.6764
4344.8359	99.6542
4345.8003	99.6409
4346.7646	99.6422
4347.7285	99.6578
4348.6929	99.6827
4349.6572	99.7089
4350.6216	99.7275
4351.5854	99.7315
4352.5498	99.7183
4353.5142	99.6905
4354.4785	99.6557
4355.4424	99.6235
4356.4067	99.6028
4357.3711	99.5993
4358.3354	99.6141
4359.2993	99.6433
4360.2637	99.678
4361.2280	99.707
4362.1924	99.7201
4363.1563	99.7132
4364.1206	99.6904
4365.0850	99.6623
4366.0493	99.6404
4367.0132	99.6316
4367.9775	99.6354
4368.9419	99.6462
4369.9063	99.658
4370.8701	99.6681
4371.8345	99.6777
4372.7988	99.6886
4373.7632	99.7006
4374.7271	99.7103
4375.6914	99.714
4376.6558	99.7099
4377.6201	99.7005
4378.5840	99.6906
4379.5483	99.6849
4380.5127	99.6843
4381.4771	99.6858
4382.4409	99.6833
4383.4053	99.6721
4384.3696	99.6524
4385.3340	99.6302
4386.2979	99.6144
4387.2622	99.6125
4388.2266	99.6254
4389.1909	99.647
4390.1548	99.6685
4391.1191	99.6838
4392.0835	99.693
4393.0479	99.7012
4394.0117	99.713
4394.9761	99.7272
4395.9404	99.7375
4396.9048	99.7372
4397.8687	99.7255
4398.8330	99.7094
4399.7974	99.6995
4400.7617	99.7021
4401.7256	99.7143
4402.6899	99.7248
4403.6543	99.7216
4404.6187	99.699
4405.5825	99.6614
4406.5469	99.6198
4407.5112	99.5859
4408.4756	99.5669
4409.4395	99.5645
4410.4038	99.5765
4411.3682	99.5992
4412.3325	99.6272
4413.2964	99.6538
4414.2607	99.6706
4415.2251	99.671
4416.1895	99.6542
4417.1533	99.6276
4418.1177	99.6055
4419.0820	99.6025
4420.0464	99.6261
4421.0103	99.6726
4421.9746	99.7281
4422.9390	99.775
4423.9033	99.8001
4424.8672	99.7994
4425.8315	99.7781
4426.7959	99.7454
4427.7603	99.71
4428.7241	99.6768
4429.6885	99.6484
4430.6528	99.6271
4431.6172	99.616
4432.5811	99.6174
4433.5454	99.63
4434.5098	99.6478
4435.4741	99.6621
4436.4380	99.666
4437.4023	99.6584
4438.3667	99.6446
4439.3311	99.6328
4440.2949	99.629
4441.2593	99.6338
4442.2236	99.6427
4443.1880	99.649
4444.1519	99.6488
4445.1162	99.643
4446.0806	99.6372
4447.0449	99.6391
4448.0088	99.6534
4448.9731	99.6792
4449.9375	99.7092
4450.9019	99.7321
4451.8657	99.7373
4452.8301	99.721
4453.7944	99.6881
4454.7588	99.6519
4455.7227	99.6276
4456.6870	99.6257
4457.6514	99.6469
4458.6157	99.6813
4459.5796	99.7138
4460.5439	99.7311
4461.5083	99.7276
4462.4727	99.7075
4463.4365	99.6814
4464.4009	99.661
4465.3652	99.6549
4466.3296	99.6654
4467.2935	99.6902
4468.2578	99.7237
4469.2222	99.7587
4470.1865	99.7879
4471.1504	99.8054
4472.1147	99.8079
4473.0791	99.796
4474.0435	99.7745
4475.0073	99.7499
4475.9717	99.7281
4476.9360	99.712
4477.9004	99.7015
4478.8643	99.6948
4479.8286	99.6902
4480.7930	99.6871
4481.7573	99.6853
4482.7212	99.6848
4483.6855	99.6855
4484.6499	99.6878
4485.6143	99.6923
4486.5781	99.6997
4487.5425	99.709
4488.5068	99.7178
4489.4712	99.7233
4490.4351	99.7237
4491.3994	99.7197
4492.3638	99.714
4493.3281	99.709
4494.2920	99.7058
4495.2563	99.7035
4496.2207	99.7008
4497.1851	99.698
4498.1489	99.6965
4499.1133	99.6984
4500.0776	99.7038
4501.0420	99.7102
4502.0059	99.714
4502.9702	99.7129
4503.9346	99.7083
4504.8989	99.7049
4505.8628	99.7078
4506.8271	99.718
4507.7915	99.7309
4508.7559	99.7375
4509.7197	99.7305
4510.6841	99.7091
4511.6484	99.681
4512.6128	99.6586
4513.5767	99.6519
4514.5410	99.662
4515.5054	99.6815
4516.4697	99.6993
4517.4336	99.7077
4518.3979	99.7068
4519.3623	99.7024
4520.3267	99.7007
4521.2905	99.7028
4522.2549	99.7049
4523.2192	99.7015
4524.1836	99.6903
4525.1475	99.674
4526.1118	99.6579
4527.0762	99.6458
4528.0405	99.6377
4529.0044	99.6307
4529.9688	99.6213
4530.9331	99.6084
4531.8975	99.594
4532.8613	99.5813
4533.8257	99.5723
4534.7900	99.5671
4535.7544	99.5639
4536.7183	99.5607
4537.6826	99.5569
4538.6470	99.5532
4539.6113	99.5514
4540.5752	99.5533
4541.5396	99.5596
4542.5039	99.5693
4543.4683	99.5801
4544.4321	99.5895
4545.3965	99.5961
4546.3608	99.5997
4547.3252	99.602
4548.2891	99.6047
4549.2534	99.6088
4550.2178	99.6144
4551.1821	99.6205
4552.1460	99.626
4553.1104	99.6306
4554.0747	99.6338
4555.0391	99.6355
4556.0029	99.6347
4556.9673	99.6302
4557.9316	99.6217
4558.8960	99.6103
4559.8599	99.5988
4560.8242	99.5902
4561.7886	99.586
4562.7529	99.5851
4563.7168	99.5854
4564.6812	99.5855
4565.6455	99.5865
4566.6099	99.5912
4567.5737	99.6024
4568.5381	99.6193
4569.5024	99.6375
4570.4668	99.6511
4571.4307	99.6565
4572.3950	99.6536
4573.3594	99.6454
4574.3237	99.635
4575.2876	99.6236
4576.2520	99.6115
4577.2163	99.6002
4578.1807	99.5942
4579.1445	99.5987
4580.1089	99.6148
4581.0732	99.6363
4582.0376	99.6512
4583.0015	99.6485
4583.9658	99.6251
4584.9302	99.5894
4585.8945	99.5565
4586.8584	99.5405
4587.8228	99.5471
4588.7871	99.5726
4589.7515	99.6073
4590.7153	99.6424
4591.6797	99.6727
4592.6440	99.6961
4593.6084	99.7111
4594.5723	99.7155
4595.5366	99.7074
4596.5010	99.6887
4597.4653	99.6655
4598.4292	99.646
4599.3936	99.6359
4600.3579	99.6348
4601.3223	99.6376
4602.2861	99.6387
4603.2505	99.6361
4604.2148	99.6327
4605.1792	99.6338
4606.1431	99.6415
4607.1074	99.6527
4608.0718	99.6604
4609.0361	99.6587
4610.0000	99.647
4610.9644	99.6311
4611.9287	99.6192
4612.8931	99.6161
4613.8569	99.6204
4614.8213	99.6248
4615.7856	99.6214
4616.7500	99.6061
4617.7139	99.5811
4618.6782	99.5535
4619.6426	99.531
4620.6069	99.5184
4621.5708	99.5165
4622.5352	99.5229
4623.4995	99.5345
4624.4639	99.5485
4625.4277	99.5635
4626.3921	99.578
4627.3564	99.59
4628.3208	99.5979
4629.2847	99.6011
4630.2490	99.6013
4631.2134	99.6028
4632.1777	99.6097
4633.1416	99.6239
4634.1060	99.6428
4635.0703	99.6608
4636.0347	99.6728
4636.9985	99.6774
4637.9629	99.6792
4638.9272	99.6851
4639.8916	99.6999
4640.8555	99.7221
4641.8198	99.7442
4642.7842	99.7573
4643.7485	99.7568
4644.7124	99.7449
4645.6768	99.7284
4646.6411	99.7131
4647.6055	99.6991
4648.5693	99.6809
4649.5337	99.6515
4650.4980	99.6087
4651.4624	99.5583
4652.4263	99.5128
4653.3906	99.4856
4654.3550	99.4841
4655.3193	99.5053
4656.2832	99.5367
4657.2476	99.5611
4658.2119	99.5651
4659.1763	99.545
4660.1401	99.5092
4661.1045	99.4728
4662.0688	99.4509
4663.0332	99.4507
4663.9971	99.4696
4664.9614	99.4977
4665.9258	99.5238
4666.8901	99.5401
4667.8540	99.5438
4668.8184	99.5362
4669.7827	99.5217
4670.7471	99.5065
4671.7109	99.4978
4672.6753	99.5013
4673.6396	99.5177
4674.6040	99.5408
4675.5679	99.5597
4676.5322	99.5647
4677.4966	99.5537
4678.4609	99.5344
4679.4248	99.5202
4680.3892	99.5223
4681.3535	99.5434
4682.3179	99.5769
4683.2817	99.6113
4684.2461	99.637
4685.2104	99.6497
4686.1748	99.6503
4687.1387	99.6425
4688.1030	99.6302
4689.0674	99.6171
4690.0317	99.6068
4690.9956	99.6018
4691.9600	99.6024
4692.9243	99.6065
4693.8887	99.6105
4694.8525	99.6117
4695.8169	99.6104
4696.7813	99.609
4697.7456	99.6101
4698.7095	99.6142
4699.6738	99.6199
4700.6382	99.6252
4701.6025	99.6297
4702.5664	99.6348
4703.5308	99.6425
4704.4951	99.6531
4705.4595	99.6646
4706.4233	99.6744
4707.3877	99.6806
4708.3521	99.6838
4709.3164	99.6864
4710.2803	99.69
4711.2446	99.6944
4712.2090	99.6977
4713.1733	99.6978
4714.1372	99.6941
4715.1016	99.6876
4716.0659	99.6801
4717.0303	99.6731
4717.9941	99.6667
4718.9585	99.661
4719.9229	99.6565
4720.8872	99.6544
4721.8511	99.655
4722.8154	99.657
4723.7798	99.6579
4724.7441	99.6563
4725.7080	99.6536
4726.6724	99.6546
4727.6367	99.6641
4728.6011	99.6826
4729.5649	99.7045
4730.5293	99.7196
4731.4937	99.72
4732.4580	99.7048
4733.4219	99.6815
4734.3862	99.6614
4735.3506	99.6522
4736.3149	99.654
4737.2788	99.6602
4738.2432	99.664
4739.2075	99.6638
4740.1719	99.6648
4741.1357	99.6739
4742.1001	99.6935
4743.0645	99.7187
4744.0288	99.7403
4744.9927	99.752
4745.9570	99.7547
4746.9214	99.7559
4747.8857	99.7622
4748.8496	99.7735
4749.8140	99.7811
4750.7783	99.7735
4751.7427	99.7451
4752.7065	99.7017
4753.6709	99.6596
4754.6353	99.638
4755.5996	99.6492
4756.5635	99.6926
4757.5278	99.7551
4758.4922	99.8157
4759.4565	99.8532
4760.4204	99.8528
4761.3848	99.8114
4762.3491	99.7389
4763.3135	99.6554
4764.2773	99.5841
4765.2417	99.5429
4766.2061	99.5374
4767.1704	99.5597
4768.1343	99.5939
4769.0986	99.6243
4770.0630	99.6427
4771.0273	99.6505
4771.9912	99.655
4772.9556	99.6633
4773.9199	99.678
4774.8843	99.697
4775.8481	99.7155
4776.8125	99.7295
4777.7769	99.7365
4778.7412	99.7351
4779.7051	99.7247
4780.6694	99.7057
4781.6338	99.6815
4782.5981	99.6592
4783.5620	99.6474
4784.5264	99.6524
4785.4907	99.6735
4786.4551	99.7017
4787.4189	99.7232
4788.3833	99.7253
4789.3477	99.7038
4790.3120	99.6641
4791.2759	99.6191
4792.2402	99.5825
4793.2046	99.5632
4794.1689	99.564
4795.1328	99.5821
4796.0972	99.6116
4797.0615	99.6452
4798.0259	99.6748
4798.9897	99.6933
4799.9541	99.6974
4800.9185	99.691
4801.8828	99.6851
4802.8467	99.6923
4803.8110	99.7191
4804.7754	99.7597
4805.7397	99.7977
4806.7036	99.8148
4807.6680	99.8017
4808.6323	99.7635
4809.5967	99.7169
4810.5605	99.6796
4811.5249	99.6614
4812.4893	99.6605
4813.4536	99.6687
4814.4175	99.6775
4815.3818	99.684
4816.3462	99.6895
4817.3105	99.6961
4818.2744	99.7026
4819.2388	99.705
4820.2031	99.6986
4821.1675	99.6823
4822.1313	99.6591
4823.0957	99.6352
4824.0601	99.6164
4825.0244	99.6056
4825.9883	99.6014
4826.9526	99.5994
4827.9170	99.5945
4828.8813	99.5844
4829.8452	99.5708
4830.8096	99.5586
4831.7739	99.5526
4832.7383	99.5542
4833.7021	99.5603
4834.6665	99.5669
4835.6309	99.5729
4836.5952	99.5829
4837.5591	99.6042
4838.5234	99.6403
4839.4878	99.6859
4840.4521	99.727
4841.4160	99.7483
4842.3804	99.742
4843.3447	99.7125
4844.3091	99.6734
4845.2729	99.6394
4846.2373	99.6181
4847.2017	99.6093
4848.1660	99.6084
4849.1299	99.6124
4850.0942	99.6214
4851.0586	99.6368
4852.0229	99.6569
4852.9868	99.6765
4853.9512	99.6898
4854.9155	99.6947
4855.8799	99.6955
4856.8438	99.6992
4857.8081	99.7103
4858.7725	99.7275
4859.7368	99.7437
4860.7007	99.7518
4861.6650	99.7491
4862.6294	99.7392
4863.5938	99.7288
4864.5576	99.7232
4865.5220	99.7229
4866.4863	99.7239
4867.4507	99.7214
4868.4146	99.7125
4869.3789	99.6984
4870.3433	99.6824
4871.3076	99.6671
4872.2715	99.6534
4873.2358	99.6405
4874.2002	99.6281
4875.1646	99.618
4876.1284	99.6144
4877.0928	99.6215
4878.0571	99.6417
4879.0215	99.6739
4879.9854	99.7137
4880.9497	99.7545
4881.9141	99.7892
4882.8784	99.811
4883.8423	99.815
4884.8066	99.7994
4885.7710	99.7676
4886.7354	99.7286
4887.6992	99.6938
4888.6636	99.6727
4889.6279	99.668
4890.5923	99.6736
4891.5562	99.6784
4892.5205	99.6725
4893.4849	99.6537
4894.4492	99.6298
4895.4131	99.6141
4896.3774	99.6181
4897.3418	99.6447
4898.3062	99.6855
4899.2700	99.7249
4900.2344	99.7472
4901.1987	99.7443
4902.1631	99.7183
4903.1270	99.6798
4904.0913	99.6421
4905.0557	99.6154
4906.0200	99.6047
4906.9839	99.6101
4907.9482	99.6296
4908.9126	99.6607
4909.8770	99.7001
4910.8408	99.7419
4911.8052	99.7771
4912.7695	99.7957
4913.7339	99.7914
4914.6978	99.7655
4915.6621	99.7274
4916.6265	99.6913
4917.5908	99.6698
4918.5547	99.6692
4919.5190	99.6875
4920.4834	99.7168
4921.4478	99.747
4922.4116	99.7701
4923.3760	99.7823
4924.3403	99.7839
4925.3047	99.7785
4926.2686	99.7712
4927.2329	99.7661
4928.1973	99.7647
4929.1616	99.7654
4930.1255	99.7637
4931.0898	99.7554
4932.0542	99.7392
4933.0186	99.7175
4933.9824	99.6953
4934.9468	99.6773
4935.9111	99.6651
4936.8755	99.6572
4937.8394	99.6503
4938.8037	99.6424
4939.7681	99.6339
4940.7324	99.6271
4941.6963	99.6245
4942.6606	99.6269
4943.6250	99.6336
4944.5894	99.6429
4945.5532	99.6534
4946.5176	99.6635
4947.4819	99.6719
4948.4463	99.6776
4949.4102	99.6812
4950.3745	99.6859
4951.3389	99.6961
4952.3032	99.7149
4953.2671	99.7419
4954.2314	99.7717
4955.1958	99.7971
4956.1602	99.8124
4957.1240	99.8166
4958.0884	99.8123
4959.0527	99.8033
4960.0171	99.791
4960.9810	99.775
4961.9453	99.7555
4962.9097	99.7361
4963.8740	99.724
4964.8379	99.7257
4965.8022	99.743
4966.7666	99.7696
4967.7310	99.7935
4968.6948	99.8024
4969.6592	99.7894
4970.6235	99.7565
4971.5879	99.7128
4972.5518	99.6702
4973.5161	99.6387
4974.4805	99.6242
4975.4448	99.6275
4976.4087	99.6465
4977.3730	99.6778
4978.3374	99.7172
4979.3018	99.7589
4980.2656	99.7946
4981.2300	99.814
4982.1943	99.8076
4983.1587	99.7716
4984.1226	99.7118
4985.0869	99.6441
4986.0513	99.5894
4987.0156	99.5658
4987.9795	99.5806
4988.9438	99.6275
4989.9082	99.6903
4990.8726	99.7497
4991.8364	99.7918
4992.8008	99.8112
4993.7651	99.8104
4994.7295	99.7949
4995.6934	99.7695
4996.6577	99.7369
4997.6221	99.6995
4998.5864	99.6616
4999.5503	99.6306
5000.5146	99.6149
5001.4790	99.6199
5002.4434	99.6441
5003.4072	99.678
5004.3716	99.707
5005.3359	99.7181
5006.3003	99.7061
5007.2642	99.6768
5008.2285	99.6446
5009.1929	99.6253
5010.1572	99.6283
5011.1211	99.6515
5012.0854	99.6833
5013.0498	99.7088
5014.0142	99.7175
5014.9780	99.7087
5015.9424	99.6898
5016.9067	99.6713
5017.8711	99.6603
5018.8350	99.6576
5019.7993	99.6579
5020.7637	99.6543
5021.7280	99.6423
5022.6919	99.6234
5023.6563	99.6045
5024.6206	99.5949
5025.5850	99.6017
5026.5488	99.6248
5027.5132	99.6562
5028.4775	99.6833
5029.4419	99.6948
5030.4058	99.6884
5031.3701	99.6719
5032.3345	99.6594
5033.2988	99.6627
5034.2627	99.6842
5035.2271	99.7157
5036.1914	99.744
5037.1558	99.7594
5038.1196	99.7605
5039.0840	99.7533
5040.0483	99.746
5041.0127	99.7423
5041.9766	99.739
5042.9409	99.7285
5043.9053	99.7041
5044.8696	99.6648
5045.8335	99.6172
5046.7979	99.5733
5047.7622	99.5467
5048.7266	99.5477
5049.6904	99.5787
5050.6548	99.6336
5051.6191	99.6991
5052.5835	99.7592
5053.5474	99.8
5054.5117	99.8135
5055.4761	99.799
5056.4404	99.7615
5057.4043	99.7102
5058.3687	99.6562
5059.3330	99.6111
5060.2974	99.5852
5061.2612	99.5851
5062.2256	99.6111
5063.1899	99.6564
5064.1543	99.7081
5065.1182	99.7504
5066.0825	99.7701
5067.0469	99.7607
5068.0112	99.7248
5068.9751	99.6731
5069.9395	99.6207
5070.9038	99.5823
5071.8682	99.5688
5072.8320	99.5842
5073.7964	99.626
5074.7607	99.6852
5075.7251	99.7488
5076.6890	99.8022
5077.6533	99.8329
5078.6177	99.8351
5079.5820	99.8113
5080.5459	99.7716
5081.5103	99.729
5082.4746	99.6944
5083.4390	99.6725
5084.4028	99.662
5085.3672	99.658
5086.3315	99.6564
5087.2959	99.6552
5088.2598	99.6556
5089.2241	99.6605
5090.1885	99.6732
5091.1528	99.6959
5092.1167	99.728
5093.0811	99.7646
5094.0454	99.7967
5095.0098	99.8135
5095.9736	99.8072
5096.9380	99.7767
5097.9023	99.7296
5098.8667	99.6787
5099.8306	99.6381
5100.7949	99.6173
5101.7593	99.6186
5102.7236	99.6373
5103.6875	99.6645
5104.6519	99.6907
5105.6162	99.7094
5106.5806	99.7186
5107.5444	99.7204
5108.5088	99.719
5109.4731	99.7169
5110.4375	99.7143
5111.4014	99.709
5112.3657	99.6984
5113.3301	99.6819
5114.2944	99.6613
5115.2583	99.6404
5116.2227	99.6245
5117.1870	99.6201
5118.1514	99.6335
5119.1152	99.6686
5120.0796	99.7221
5121.0439	99.7818
5122.0083	99.8282
5122.9722	99.8429
5123.9365	99.8179
5124.9009	99.7614
5125.8652	99.6948
5126.8291	99.643
5127.7935	99.6219
5128.7578	99.6325
5129.7222	99.6629
5130.6860	99.6966
5131.6504	99.721
5132.6147	99.7321
5133.5791	99.7328
5134.5430	99.7292
5135.5073	99.7268
5136.4717	99.728
5137.4360	99.7325
5138.3999	99.7371
5139.3643	99.7372
5140.3286	99.7285
5141.2930	99.71
5142.2568	99.6851
5143.2212	99.6606
5144.1855	99.6434
5145.1499	99.6363
5146.1138	99.6369
5147.0781	99.6404
5148.0425	99.6429
5149.0068	99.6446
5149.9707	99.6484
5150.9351	99.656
5151.8994	99.6644
5152.8638	99.6661
5153.8276	99.654
5154.7920	99.6275
5155.7563	99.5956
5156.7207	99.574
5157.6846	99.5763
5158.6489	99.6058
5159.6133	99.6526
5160.5776	99.6981
5161.5415	99.7242
5162.5059	99.7223
5163.4702	99.6967
5164.4346	99.6614
5165.3984	99.6308
5166.3628	99.6131
5167.3271	99.6078
5168.2915	99.6088
5169.2554	99.6095
5170.2197	99.6058
5171.1841	99.5971
5172.1484	99.586
5173.1123	99.5759
5174.0767	99.5707
5175.0410	99.5731
5176.0054	99.5836
5176.9692	99.5995
5177.9336	99.6157
5178.8979	99.6273
5179.8623	99.6323
5180.8262	99.6326
5181.7905	99.6312
5182.7549	99.6302
5183.7192	99.6284
5184.6831	99.6235
5185.6475	99.6153
5186.6118	99.6077
5187.5762	99.6082
5188.5400	99.623
5189.5044	99.6534
5190.4688	99.6936
5191.4331	99.7327
5192.3970	99.7586
5193.3613	99.7619
5194.3257	99.7399
5195.2900	99.6986
5196.2539	99.6528
5197.2183	99.6222
5198.1826	99.6225
5199.1470	99.6569
5200.1108	99.7124
5201.0752	99.7639
5202.0396	99.7852
5203.0039	99.7609
5203.9678	99.6961
5204.9321	99.6168
5205.8965	99.56
5206.8608	99.5521
5207.8247	99.5938
5208.7891	99.6615
5209.7534	99.7243
5210.7178	99.7617
5211.6816	99.7704
5212.6460	99.76
5213.6104	99.7435
5214.5747	99.7286
5215.5386	99.7166
5216.5029	99.7056
5217.4673	99.6963
5218.4316	99.6918
5219.3955	99.6943
5220.3599	99.6999
5221.3242	99.7009
5222.2886	99.6915
5223.2524	99.675
5224.2168	99.6639
5225.1812	99.6713
5226.1455	99.698
5227.1094	99.7294
5228.0737	99.7437
5229.0381	99.7272
5230.0024	99.6839
5230.9663	99.6345
5231.9307	99.6039
5232.8950	99.607
5233.8594	99.6402
5234.8232	99.6869
5235.7876	99.7283
5236.7520	99.7523
5237.7163	99.7561
5238.6802	99.742
5239.6445	99.7143
5240.6089	99.6779
5241.5732	99.6399
5242.5371	99.6096
5243.5015	99.5955
5244.4658	99.6001
5245.4302	99.617
5246.3940	99.6347
5247.3584	99.6437
5248.3228	99.6423
5249.2871	99.635
5250.2510	99.6271
5251.2153	99.6182
5252.1797	99.6037
5253.1440	99.5795
5254.1079	99.5497
5255.0723	99.5277
5256.0366	99.5299
5257.0010	99.5641
5257.9648	99.6239
5258.9292	99.6901
5259.8936	99.7382
5260.8579	99.7486
5261.8218	99.7163
5262.7861	99.6552
5263.7505	99.5917
5264.7148	99.551
5265.6787	99.5444
5266.6431	99.5683
5267.6074	99.609
5268.5718	99.6516
5269.5356	99.6856
5270.5000	99.7075
5271.4644	99.7179
5272.4287	99.7189
5273.3926	99.7116
5274.3569	99.6973
5275.3213	99.6796
5276.2856	99.6653
5277.2495	99.6616
5278.2139	99.672
5279.1782	99.6919
5280.1426	99.7096
5281.1064	99.7109
5282.0708	99.6858
5283.0352	99.6329
5283.9995	99.5615
5284.9634	99.4881
5285.9277	99.4317
5286.8921	99.4082
5287.8564	99.4249
5288.8203	99.4772
5289.7847	99.5483
5290.7490	99.6155
5291.7134	99.6604
5292.6772	99.6766
5293.6416	99.6685
5294.6060	99.6449
5295.5703	99.6111
5296.5342	99.5685
5297.4985	99.5185
5298.4629	99.4687
5299.4272	99.4339
5300.3911	99.4295
5301.3555	99.4625
5302.3198	99.5267
5303.2842	99.6062
5304.2480	99.6827
5305.2124	99.7426
5306.1768	99.7801
5307.1411	99.7955
5308.1050	99.794
5309.0693	99.7832
5310.0337	99.772
5310.9980	99.7674
5311.9619	99.771
5312.9263	99.777
5313.8906	99.7746
5314.8550	99.7548
5315.8188	99.718
5316.7832	99.6747
5317.7476	99.6391
5318.7119	99.62
5319.6758	99.6153
5320.6401	99.614
5321.6045	99.6038
5322.5688	99.5778
5323.5327	99.5378
5324.4971	99.4923
5325.4614	99.4542
5326.4258	99.436
5327.3896	99.446
5328.3540	99.4845
5329.3184	99.5419
5330.2827	99.6017
5331.2466	99.6462
5332.2109	99.6637
5333.1753	99.6524
5334.1396	99.6189
5335.1035	99.5733
5336.0679	99.524
5337.0322	99.4765
5337.9966	99.4358
5338.9604	99.4099
5339.9248	99.4097
5340.8892	99.4458
5341.8535	99.5228
5342.8174	99.6335
5343.7817	99.7553
5344.7461	99.8546
5345.7104	99.9018
5346.6743	99.8875
5347.6387	99.825
5348.6030	99.7416
5349.5674	99.6666
5350.5313	99.6209
5351.4956	99.6094
5352.4600	99.6181
5353.4243	99.6228
5354.3882	99.6039
5355.3525	99.5589
5356.3169	99.5016
5357.2813	99.4516
5358.2451	99.4247
5359.2095	99.4285
5360.1738	99.4614
5361.1382	99.5146
5362.1021	99.5729
5363.0664	99.6166
5364.0308	99.6267
5364.9951	99.5927
5365.9590	99.5197
5366.9233	99.4302
5367.8877	99.356
5368.8521	99.3249
5369.8159	99.3481
5370.7803	99.4158
5371.7446	99.5021
5372.7090	99.5767
5373.6729	99.6167
5374.6372	99.6134
5375.6016	99.575
5376.5659	99.5207
5377.5298	99.4724
5378.4941	99.4463
5379.4585	99.4496
5380.4229	99.4819
5381.3867	99.5369
5382.3511	99.6048
5383.3154	99.6738
5384.2798	99.7315
5385.2437	99.7688
5386.2080	99.7817
5387.1724	99.771
5388.1367	99.7393
5389.1006	99.6889
5390.0649	99.6223
5391.0293	99.5459
5391.9937	99.4741
5392.9575	99.4284
5393.9219	99.4295
5394.8862	99.4842
5395.8506	99.5773
5396.8145	99.6748
5397.7788	99.7377
5398.7432	99.7373
5399.7075	99.667
5400.6714	99.5463
5401.6357	99.4141
5402.6001	99.313
5403.5645	99.2701
5404.5283	99.2867
5405.4927	99.3406
5406.4570	99.4014
5407.4214	99.4462
5408.3853	99.4711
5409.3496	99.491
5410.3140	99.5293
5411.2783	99.6017
5412.2422	99.7035
5413.2065	99.8094
5414.1709	99.8864
5415.1353	99.9109
5416.0991	99.8782
5417.0635	99.8011
5418.0278	99.7024
5418.9922	99.6073
5419.9561	99.5375
5420.9204	99.5059
5421.8848	99.514
5422.8491	99.5525
5423.8130	99.6067
5424.7773	99.6623
5425.7417	99.7093
5426.7061	99.7406
5427.6699	99.7499
5428.6343	99.7293
5429.5986	99.6722
5430.5630	99.5785
5431.5269	99.4601
5432.4912	99.3421
5433.4556	99.258
5434.4199	99.2374
5435.3838	99.2917
5436.3481	99.4057
5437.3125	99.5432
5438.2769	99.6579
5439.2407	99.7066
5440.2051	99.6636
5441.1694	99.534
5442.1338	99.3589
5443.0977	99.2013
5444.0620	99.1189
5445.0264	99.1381
5445.9907	99.2445
5446.9546	99.3932
5447.9189	99.5359
5448.8833	99.6463
5449.8477	99.7279
5450.8115	99.7993
5451.7759	99.8713
5452.7402	99.9348
5453.7046	99.967
5454.6685	99.9487
5455.6328	99.8803
5456.5972	99.7823
5457.5615	99.6838
5458.5254	99.6068
5459.4897	99.5587
5460.4541	99.5356
5461.4185	99.5289
5462.3823	99.5314
5463.3467	99.5375
5464.3110	99.5444
5465.2754	99.5533
5466.2393	99.5709
5467.2036	99.605
5468.1680	99.6562
5469.1323	99.7105
5470.0962	99.7425
5471.0605	99.7282
5472.0249	99.6616
5472.9893	99.5629
5473.9531	99.4742
5474.9175	99.4375
5475.8818	99.468
5476.8462	99.5413
5477.8101	99.6087
5478.7744	99.6241
5479.7388	99.5685
5480.7031	99.4588
5481.6670	99.3396
5482.6313	99.2617
5483.5957	99.2557
5484.5601	99.3156
5485.5239	99.4031
5486.4883	99.4677
5487.4526	99.475
5488.4170	99.4239
5489.3809	99.3456
5490.3452	99.2846
5491.3096	99.2746
5492.2739	99.324
5493.2378	99.4163
5494.2021	99.5234
5495.1665	99.6205
5496.1309	99.6943
5497.0947	99.7409
5498.0591	99.7611
5499.0234	99.7552
5499.9878	99.723
5500.9517	99.6654
5501.9160	99.5895
5502.8804	99.5098
5503.8447	99.447
5504.8086	99.4199
5505.7729	99.4355
5506.7373	99.4829
5507.7017	99.5385
5508.6655	99.5801
5509.6299	99.6008
5510.5942	99.6122
5511.5586	99.6328
5512.5225	99.6717
5513.4868	99.7188
5514.4512	99.7498
5515.4155	99.7435
5516.3794	99.698
5517.3438	99.6345
5518.3081	99.5851
5519.2725	99.5739
5520.2363	99.6049
5521.2007	99.6599
5522.1650	99.7087
5523.1294	99.7223
5524.0933	99.6866
5525.0576	99.6098
5526.0220	99.522
5526.9863	99.4653
5527.9502	99.4725
5528.9146	99.5461
5529.8789	99.65
5530.8433	99.7262
5531.8071	99.7308
5532.7715	99.6673
5533.7358	99.5897
5534.7002	99.5672
5535.6641	99.6327
5536.6284	99.7514
5537.5928	99.8379
5538.5571	99.8127
5539.5210	99.6609
5540.4854	99.4482
5541.4497	99.282
5542.4141	99.2473
5543.3779	99.3576
5544.3423	99.5502
5545.3066	99.724
5546.2710	99.7939
5547.2349	99.7294
5548.1992	99.5589
5549.1636	99.3454
5550.1279	99.1545
5551.0918	99.0318
5552.0562	98.9952
5553.0205	99.0379
5553.9849	99.1366
5554.9487	99.2622
5555.9131	99.3891
5556.8774	99.5
5557.8418	99.5861
5558.8057	99.6445
5559.7700	99.6783
5560.7344	99.6975
5561.6987	99.7198
5562.6626	99.7657
5563.6270	99.848
5564.5913	99.9614
5565.5557	100.081
5566.5195	100.173
5567.4839	100.207
5568.4482	100.167
5569.4126	100.055
5570.3765	99.8872
5571.3408	99.6882
5572.3052	99.4934
5573.2695	99.343
5574.2334	99.2722
5575.1978	99.2953
5576.1621	99.3961
5577.1265	99.5311
5578.0903	99.6476
5579.0547	99.7067
5580.0190	99.6951
5580.9834	99.6224
5581.9473	99.5076
5582.9116	99.3687
5583.8760	99.2226
5584.8403	99.0904
5585.8042	98.9987
5586.7686	98.9718
5587.7329	99.0183
5588.6973	99.1239
5589.6611	99.2559
5590.6255	99.3771
5591.5898	99.4591
5592.5542	99.4898
5593.5181	99.4724
5594.4824	99.4217
5595.4468	99.3611
5596.4111	99.3183
5597.3750	99.319
5598.3394	99.3772
5599.3037	99.4891
5600.2681	99.6339
5601.2319	99.7822
5602.1963	99.9041
5603.1606	99.9734
5604.1250	99.9683
5605.0889	99.8754
5606.0532	99.7012
5607.0176	99.4845
5607.9819	99.2947
5608.9458	99.2065
5609.9102	99.2606
5610.8745	99.4338
5611.8389	99.6435
5612.8027	99.7896
5613.7671	99.8106
5614.7314	99.7171
5615.6958	99.5798
5616.6597	99.4815
5617.6240	99.4656
5618.5884	99.5167
5619.5527	99.5828
5620.5166	99.6196
5621.4810	99.6217
5622.4453	99.6198
5623.4097	99.6489
5624.3735	99.7151
5625.3379	99.7879
5626.3022	99.8226
5627.2666	99.7965
5628.2305	99.7299
5629.1948	99.6759
5630.1592	99.6872
5631.1235	99.7824
5632.0874	99.9336
5633.0518	100.082
5634.0161	100.168
5634.9805	100.163
5635.9443	100.076
5636.9087	99.9427
5637.8730	99.8086
5638.8374	99.7101
5639.8013	99.6646
5640.7656	99.667
5641.7300	99.692
5642.6943	99.7038
5643.6582	99.6713
5644.6226	99.5864
5645.5869	99.4737
5646.5513	99.3841
5647.5151	99.3696
5648.4795	99.4504
5649.4438	99.5957
5650.4082	99.7324
5651.3721	99.7836
5652.3364	99.7152
5653.3008	99.5604
5654.2651	99.4024
5655.2290	99.326
5656.1934	99.3686
5657.1577	99.502
5658.1221	99.6532
5659.0859	99.7486
5660.0503	99.7512
5661.0146	99.6718
5661.9790	99.5528
5662.9429	99.4428
5663.9072	99.3786
5664.8716	99.3789
5665.8359	99.4415
5666.7998	99.5414
5667.7642	99.632
5668.7285	99.6609
5669.6929	99.5968
5670.6567	99.4518
5671.6211	99.2807
5672.5854	99.1525
5673.5498	99.1145
5674.5137	99.1763
5675.4780	99.3236
5676.4424	99.5435
5677.4067	99.8338
5678.3706	100.183
5679.3350	100.542
5680.2993	100.821
5681.2637	100.923
5682.2275	100.812
5683.1919	100.541
5684.1563	100.231
5685.1206	99.9977
5686.0845	99.8873
5687.0488	99.8592
5688.0132	99.8274
5688.9775	99.7263
5689.9414	99.5538
5690.9058	99.366
5691.8701	99.2366
5692.8345	99.2145
5693.7983	99.3048
5694.7627	99.4756
5695.7271	99.6769
5696.6914	99.8546
5697.6553	99.9571
5698.6196	99.945
5699.5840	99.8082
5700.5483	99.5848
5701.5122	99.3621
5702.4766	99.2452
5703.4409	99.3046
5704.4053	99.5299
5705.3691	99.8214
5706.3335	100.033
5707.2979	100.052
5708.2622	99.865
5709.2261	99.5642
5710.1904	99.2889
5711.1548	99.1406
5712.1191	99.1324
5713.0830	99.1999
5714.0474	99.2591
5715.0117	99.2677
5715.9761	99.2433
5716.9399	99.2345
5717.9043	99.2738
5718.8687	99.3509
5719.8330	99.4251
5720.7969	99.4599
5721.7612	99.4497
5722.7256	99.4175
5723.6899	99.3915
5724.6538	99.3829
5725.6182	99.3819
5726.5825	99.3708
5727.5469	99.3403
5728.5107	99.2971
5729.4751	99.2607
5730.4395	99.2556
5731.4038	99.3022
5732.3677	99.4089
5733.3320	99.564
5734.2964	99.7328
5735.2607	99.8665
5736.2246	99.9226
5737.1890	99.8875
5738.1533	99.7855
5739.1177	99.6645
5740.0815	99.5682
5741.0459	99.5142
5742.0103	99.4923
5742.9746	99.4829
5743.9385	99.478
5744.9028	99.4882
5745.8672	99.5295
5746.8315	99.6022
5747.7954	99.6811
5748.7598	99.7282
5749.7241	99.7201
5750.6885	99.6709
5751.6523	99.633
5752.6167	99.6692
5753.5811	99.8109
5754.5454	100.027
5755.5093	100.23
5756.4736	100.311
5757.4380	100.198
5758.4023	99.8978
5759.3662	99.5002
5760.3306	99.1421
5761.2949	98.9465
5762.2593	98.9705
5763.2231	99.1836
5764.1875	99.485
5765.1519	99.7506
5766.1162	99.8879
5767.0801	99.8726
5768.0444	99.7474
5769.0088	99.5866
5769.9731	99.4512
5770.9370	99.3618
5771.9014	99.3031
5772.8657	99.2521
5773.8301	99.2068
5774.7939	99.1915
5775.7583	99.2338
5776.7227	99.332
5777.6870	99.4421
5778.6509	99.4962
5779.6152	99.4457
5780.5796	99.2984
5781.5439	99.1208
5782.5078	99.0008
5783.4722	98.9948
5784.4365	99.0938
5785.4009	99.2285
5786.3647	99.3114
5787.3291	99.2879
5788.2935	99.1677
5789.2578	99.0171
5790.2217	98.9204
5791.1860	98.9333
5792.1504	99.0548
5793.1147	99.2329
5794.0786	99.3981
5795.0430	99.4997
5796.0073	99.523
5796.9717	99.4795
5797.9355	99.387
5798.8999	99.2587
5799.8643	99.1079
5800.8286	98.9595
5801.7925	98.847
5802.7568	98.794
5803.7212	98.7952
5804.6855	98.8195
5805.6494	98.8406
5806.6138	98.8698
5807.5781	98.9571
5808.5425	99.148
5809.5063	99.4277
5810.4707	99.6992
5811.4351	99.8271
5812.3994	99.7244
5813.3633	99.4213
5814.3276	99.0596
5815.2920	98.8164
5816.2563	98.8123
5817.2202	99.0605
5818.1846	99.4745
5819.1489	99.9194
5820.1133	100.267
5821.0771	100.435
5822.0415	100.392
5823.0059	100.161
5823.9702	99.8105
5824.9341	99.4338
5825.8984	99.1227
5826.8628	98.9332
5827.8271	98.8699
5828.7910	98.8985
5829.7554	98.975
5830.7197	99.0705
5831.6841	99.1767
5832.6479	99.2951
5833.6123	99.4261
5834.5767	99.5633
5835.5410	99.6907
5836.5049	99.7768
5837.4692	99.7732
5838.4336	99.6299
5839.3979	99.3335
5840.3618	98.9443
5841.3262	98.596
5842.2905	98.4428
5843.2549	98.5829
5844.2188	99.0059
5845.1831	99.5975
5846.1475	100.195
5847.1118	100.662
5848.0757	100.927
5849.0400	100.983
5850.0044	100.856
5850.9688	100.58
5851.9326	100.207
5852.8970	99.8206
5853.8613	99.5226
5854.8257	99.3903
5855.7896	99.428
5856.7539	99.5561
5857.7183	99.6495
5858.6826	99.605
5859.6465	99.3998
5860.6108	99.1068
5861.5752	98.8607
5862.5396	98.7916
5863.5034	98.9608
5864.4678	99.3305
5865.4321	99.7778
5866.3965	100.147
5867.3604	100.318
5868.3247	100.259
5869.2891	100.025
5870.2534	99.716
5871.2173	99.4042
5872.1816	99.1015
5873.1460	98.7837
5874.1104	98.4504
5875.0742	98.1669
5876.0386	98.0434
5877.0029	98.1636
5877.9673	98.5152
5878.9312	98.9794
5879.8955	99.3944
5880.8599	99.6486
5881.8242	99.7333
5882.7881	99.7174
5883.7524	99.6748
5884.7168	99.6273
5885.6812	99.5494
5886.6450	99.422
5887.6094	99.2777
5888.5737	99.1936
5889.5381	99.2323
5890.5020	99.3846
5891.4663	99.5645
5892.4307	99.6655
5893.3950	99.635
5894.3589	99.5065
5895.3232	99.3665
5896.2876	99.2877
5897.2520	99.2848
5898.2158	99.3252
5899.1802	99.3781
5900.1445	99.4492
5901.1089	99.5659
5902.0728	99.7289
5903.0371	99.8792
5904.0015	99.9223
5904.9658	99.8013
5905.9297	99.5613
5906.8940	99.3424
5907.8584	99.295
5908.8228	99.4773
5909.7866	99.8097
5910.7510	100.12
5911.7153	100.245
5912.6797	100.129
5913.6436	99.8321
5914.6079	99.4756
5915.5723	99.1597
5916.5366	98.9212
5917.5005	98.7453
5918.4648	98.6047
5919.4292	98.4908
5920.3936	98.4184
5921.3574	98.4111
5922.3218	98.4866
5923.2861	98.6471
5924.2505	98.8707
5925.2144	99.1012
5926.1787	99.2508
5927.1431	99.2332
5928.1074	99.0247
5929.0713	98.7105
5930.0356	98.465
5931.0000	98.454
5931.9644	98.7156
5932.9282	99.1074
5933.8926	99.3706
5934.8569	99.2876
5935.8213	98.8337
5936.7852	98.2083
5937.7495	97.7142
5938.7139	97.5786
5939.6782	97.8428
5940.6421	98.3728
5941.6064	98.9569
5942.5708	99.4146
5943.5352	99.6554
5944.4990	99.6703
5945.4634	99.4914
5946.4277	99.1746
5947.3921	98.8138
5948.3560	98.5512
5949.3203	98.5411
5950.2847	98.8695
5951.2490	99.4803
5952.2134	100.173
5953.1772	100.691
5954.1416	100.863
5955.1060	100.683
5956.0703	100.295
5957.0342	99.8953
5957.9985	99.6238
5958.9629	99.5216
5959.9272	99.5484
5960.8911	99.6329
5961.8555	99.7061
5962.8198	99.7073
5963.7842	99.5836
5964.7480	99.3107
5965.7124	98.9283
5966.6768	98.5565
5967.6411	98.3606
5968.6050	98.4717
5969.5693	98.9073
5970.5337	99.5397
5971.4980	100.14
5972.4619	100.479
5973.4263	100.438
5974.3906	100.055
5975.3550	99.5003
5976.3188	98.9961
5977.2832	98.7322
5978.2476	98.8083
5979.2119	99.2099
5980.1758	99.8173
5981.1401	100.446
5982.1045	100.909
5983.0688	101.078
5984.0327	100.924
5984.9971	100.513
5985.9614	99.9701
5986.9258	99.4354
5987.8896	99.018
5988.8540	98.7774
5989.8184	98.719
5990.7827	98.7972
5991.7466	98.9257
5992.7109	99.004
5993.6753	98.9652
5994.6396	98.8255
5995.6035	98.6959
5996.5679	98.7265
5997.5322	99.0024
5998.4966	99.4542
5999.4604	99.8534
6000.4248	99.9213
6001.3892	99.4983
6002.3535	98.6641
6003.3174	97.7232
6004.2817	97.0636
6005.2461	96.9769
6006.2104	97.5306
6007.1743	98.5441
6008.1387	99.6714
6009.1030	100.548
6010.0674	100.931
6011.0313	100.768
6011.9956	100.184
6012.9600	99.4128
6013.9243	98.7036
6014.8882	98.2406
6015.8525	98.0985
6016.8169	98.2433
6017.7813	98.5731
6018.7451	98.9765
6019.7095	99.3778
6020.6738	99.7424
6021.6382	100.044
6022.6021	100.229
6023.5664	100.223
6024.5308	99.9922
6025.4951	99.6187
6026.4590	99.3057
6027.4233	99.2842
6028.3877	99.6629
6029.3521	100.325
6030.3159	100.946
6031.2803	101.153
6032.2446	100.751
6033.2090	99.8758
6034.1729	98.9431
6035.1372	98.4105
6036.1016	98.5216
6037.0659	99.1859
6038.0298	100.041
6038.9941	100.645
6039.9585	100.698
6040.9229	100.166
6041.8867	99.2726
6042.8511	98.3702
6043.8154	97.7903
6044.7798	97.7322
6045.7437	98.2123
6046.7080	99.0708
6047.6724	100.032
6048.6367	100.803
6049.6006	101.177
6050.5649	101.095
6051.5293	100.635
6052.4937	99.9467
6053.4575	99.1952
6054.4219	98.5323
6055.3862	98.0985
6056.3506	98.0078
6057.3145	98.2965
6058.2788	98.8612
6059.2432	99.4528
6060.2075	99.7758
6061.1714	99.6572
6062.1357	99.1627
6063.1001	98.5566
6064.0645	98.1268
6065.0283	98.001
6065.9927	98.0777
6066.9570	98.1175
6067.9214	97.9383
6068.8853	97.5673
6069.8496	97.228
6070.8140	97.1753
6071.7783	97.5112
6072.7422	98.1092
6073.7065	98.6848
6074.6709	98.9634
6075.6353	98.8345
6076.5991	98.3969
6077.5635	97.8794
6078.5278	97.5081
6079.4922	97.4061
6080.4561	97.562
6081.4204	97.8569
6082.3848	98.1193
6083.3491	98.1911
6084.3130	97.9946
6085.2773	97.5781
6086.2417	97.1105
6087.2061	96.8105
6088.1699	96.846
6089.1343	97.2605
6090.0986	97.9672
6091.0630	98.8047
6092.0269	99.6151
6092.9912	100.296
6093.9556	100.807
6094.9199	101.139
6095.8843	101.292
6096.8481	101.263
6097.8125	101.069
6098.7769	100.753
6099.7412	100.4
6100.7051	100.123
6101.6694	100.053
6102.6338	100.292
6103.5981	100.857
6104.5620	101.621
6105.5264	102.307
6106.4907	102.574
6107.4551	102.194
6108.4189	101.206
6109.3833	99.9274
6110.3477	98.8002
6111.3120	98.1725
6112.2759	98.1542
6113.2402	98.6035
6114.2046	99.2227
6115.1689	99.7049
6116.1328	99.8612
6117.0972	99.6731
6118.0615	99.2639
6119.0259	98.8242
6119.9897	98.5336
6120.9541	98.4995
6121.9185	98.7214
6122.8828	99.0891
6123.8467	99.4169
6124.8110	99.5043
6125.7754	99.2034
6126.7397	98.4753
6127.7036	97.4211
6128.6680	96.2811
6129.6323	95.3925
6130.5967	95.098
6131.5605	95.6102
6132.5249	96.8726
6133.4893	98.4964
6134.4536	99.8641
6135.4175	100.41
6136.3818	99.9329
6137.3462	98.7198
6138.3105	97.3821
6139.2744	96.5239
6140.2388	96.4519
6141.2031	97.0734
6142.1675	98.0073
6143.1313	98.8226
6144.0957	99.2532
6145.0601	99.2721
6146.0244	99.0237
6146.9883	98.7034
6147.9526	98.4666
6148.9170	98.3886
6149.8813	98.4491
6150.8452	98.5342
6151.8096	98.473
6152.7739	98.1289
6153.7383	97.5103
6154.7021	96.8151
6155.6665	96.347
6156.6309	96.3389
6157.5952	96.8007
6158.5591	97.4962
6159.5234	98.0783
6160.4878	98.3044
6161.4521	98.182
6162.4160	97.9373
6163.3804	97.8456
6164.3447	98.0658
6165.3091	98.5847
6166.2729	99.271
6167.2373	99.9699
6168.2017	100.565
6169.1660	100.985
6170.1299	101.19
6171.0942	101.162
6172.0586	100.918
6173.0229	100.518
6173.9868	100.028
6174.9512	99.4888
6175.9155	98.8963
6176.8799	98.2416
6177.8438	97.5668
6178.8081	96.9957
6179.7725	96.6937
6180.7368	96.7706
6181.7007	97.1898
6182.6650	97.7577
6183.6294	98.2172
6184.5938	98.3904
6185.5576	98.2792
6186.5220	98.063
6187.4863	98.0062
6188.4507	98.3329
6189.4146	99.1295
6190.3789	100.309
6191.3433	101.651
6192.3076	102.89
6193.2715	103.808
6194.2358	104.285
6195.2002	104.288
6196.1646	103.836
6197.1284	102.979
6198.0928	101.821
6199.0571	100.552
6200.0215	99.4444
6200.9854	98.7814
6201.9497	98.7332
6202.9141	99.2454
6203.8784	100.025
6204.8423	100.673
6205.8066	100.912
6206.7710	100.758
6207.7354	100.491
6208.6992	100.434
6209.6636	100.703
6210.6279	101.113
6211.5923	101.303
6212.5562	100.985
6213.5205	100.15
6214.4849	99.0641
6215.4492	98.1138
6216.4131	97.6008
6217.3774	97.6373
6218.3418	98.1708
6219.3062	99.0731
6220.2700	100.191
6221.2344	101.331
6222.1987	102.232
6223.1631	102.629
6224.1270	102.386
6225.0913	101.607
6226.0557	100.582
6227.0200	99.6083
6227.9839	98.8291
6228.9482	98.2185
6229.9126	97.7145
6230.8770	97.3665
6231.8408	97.3488
6232.8052	97.8158
6233.7695	98.7264
6234.7339	99.7958
6235.6978	100.624
6236.6621	100.927
6237.6265	100.708
6238.5908	100.226
6239.5547	99.7799
6240.5190	99.4987
6241.4834	99.3156
6242.4478	99.0967
6243.4116	98.7884
6244.3760	98.4578
6245.3403	98.2074
6246.3047	98.0602
6247.2686	97.9371
6248.2329	97.7613
6249.1973	97.5867
6250.1616	97.6154
6251.1255	98.0694
6252.0898	99.0019
6253.0542	100.195
6254.0186	101.248
6254.9824	101.824
6255.9468	101.868
6256.9111	101.599
6257.8755	101.322
6258.8394	101.203
6259.8037	101.196
6260.7681	101.129
6261.7324	100.863
6262.6963	100.41
6263.6606	99.8997
6264.6250	99.4663
6265.5894	99.1546
6266.5532	98.9132
6267.5176	98.668
6268.4819	98.3958
6269.4463	98.1347
6270.4102	97.9396
6271.3745	97.8438
6272.3389	97.8611
6273.3032	98.0152
6274.2671	98.3571
6275.2314	98.9394
6276.1958	99.7596
6277.1602	100.713
6278.1240	101.593
6279.0884	102.138
6280.0527	102.11
6281.0171	101.392
6281.9810	100.063
6282.9453	98.4327
6283.9097	96.9729
6284.8740	96.155
6285.8379	96.2555
6286.8022	97.2199
6287.7666	98.6585
6288.7310	100.003
6289.6948	100.779
6290.6592	100.836
6291.6235	100.372
6292.5879	99.7377
6293.5518	99.211
6294.5161	98.882
6295.4805	98.6913
6296.4448	98.542
6297.4087	98.3947
6298.3730	98.2879
6299.3374	98.2955
6300.3018	98.4763
6301.2656	98.8555
6302.2300	99.4314
6303.1943	100.174
6304.1587	100.997
6305.1226	101.74
6306.0869	102.181
6307.0513	102.125
6308.0156	101.5
6308.9795	100.419
6309.9438	99.157
6310.9082	98.0558
6311.8726	97.4109
6312.8364	97.3848
6313.8008	97.9708
6314.7651	98.9978
6315.7295	100.165
6316.6934	101.105
6317.6577	101.492
6318.6221	101.158
6319.5864	100.173
6320.5503	98.8156
6321.5146	97.4623
6322.4790	96.4511
6323.4434	95.9877
6324.4072	96.1098
6325.3716	96.7169
6326.3359	97.6471
6327.3003	98.7505
6328.2642	99.9096
6329.2285	101.007
6330.1929	101.887
6331.1572	102.358
6332.1211	102.259
6333.0854	101.55
6334.0498	100.371
6335.0142	99.0136
6335.9780	97.8393
6336.9424	97.1796
6337.9067	97.2562
6338.8711	98.119
6339.8350	99.6076
6340.7993	101.364
6341.7637	102.93
6342.7280	103.915
6343.6919	104.134
6344.6563	103.638
6345.6206	102.643
6346.5850	101.432
6347.5488	100.288
6348.5132	99.4492
6349.4775	99.059
6350.4419	99.1425
6351.4058	99.6067
6352.3701	100.279
6353.3345	100.962
6354.2988	101.487
6355.2627	101.737
6356.2271	101.65
6357.1914	101.22
6358.1558	100.5
6359.1196	99.6175
6360.0840	98.7604
6361.0483	98.1395
6362.0127	97.9325
6362.9766	98.2306
6363.9409	99.0009
6364.9053	100.058
6365.8696	101.058
6366.8335	101.573
6367.7979	101.274
6368.7622	100.16
6369.7266	98.6549
6370.6904	97.4463
6371.6548	97.1597
6372.6191	98.0196
6373.5835	99.6632
6374.5474	101.247
6375.5117	101.898
6376.4761	101.269
6377.4404	99.7603
6378.4043	98.222
6379.3687	97.4071
6380.3330	97.5715
6381.2974	98.4265
6382.2612	99.4266
6383.2256	100.173
6384.1899	100.628
6385.1543	101.002
6386.1182	101.457
6387.0825	101.891
6388.0469	101.969
6389.0112	101.405
6389.9751	100.265
6390.9395	99.0146
6391.9038	98.224
6392.8682	98.172
6393.8320	98.6459
6394.7964	99.051
6395.7607	98.7803
6396.7251	97.6438
6397.6890	96.0523
6398.6533	94.7808
6399.6177	94.4917
6400.5820	95.3693
6401.5459	97.0579
6402.5103	98.8709
6403.4746	100.139
6404.4390	100.515
6405.4028	100.055
6406.3672	99.0794
6407.3315	97.9567
6408.2959	96.9889
6409.2598	96.4159
6410.2241	96.4416
6411.1885	97.1943
6412.1528	98.625
6413.1167	100.433
6414.0811	102.123
6415.0454	103.204
6416.0098	103.414
6416.9736	102.793
6417.9380	101.575
6418.9023	100.049
6419.8667	98.4672
6420.8306	97.0377
6421.7949	95.9442
6422.7593	95.3451
6423.7236	95.348
6424.6875	95.9765
6425.6519	97.1484
6426.6162	98.6691
6427.5806	100.248
6428.5444	101.556
6429.5088	102.325
6430.4731	102.467
6431.4375	102.112
6432.4014	101.52
6433.3657	100.915
6434.3301	100.361
6435.2944	99.7889
6436.2583	99.1341
6437.2227	98.4715
6438.1870	98.0345
6439.1514	98.0815
6440.1152	98.7142
6441.0796	99.7861
6442.0439	100.966
6443.0083	101.898
6443.9722	102.349
6444.9365	102.263
6445.9009	101.732
6446.8652	100.943
6447.8291	100.141
6448.7935	99.5764
6449.7578	99.4062
6450.7222	99.5892
6451.6860	99.8568
6452.6504	99.8536
6453.6147	99.3994
6454.5791	98.668
6455.5430	98.1019
6456.5073	98.1188
6457.4717	98.8253
6458.4360	99.9162
6459.3999	100.832
6460.3643	101.106
6461.3286	100.669
6462.2930	99.8594
6463.2568	99.1582
6464.2212	98.8865
6465.1855	99.0743
6466.1499	99.5297
6467.1138	100.004
6468.0781	100.324
6469.0425	100.419
6470.0068	100.281
6470.9707	99.9396
6471.9351	99.475
6472.8994	99.0401
6473.8638	98.8285
6474.8276	98.9763
6475.7920	99.4649
6476.7563	100.099
6477.7207	100.587
6478.6846	100.689
6479.6489	100.341
6480.6133	99.6992
6481.5776	99.0651
6482.5415	98.7349
6483.5059	98.855
6484.4702	99.3626
6485.4346	100.032
6486.3984	100.586
6487.3628	100.818
6488.3271	100.676
6489.2915	100.277
6490.2554	99.8449
6491.2197	99.5768
6492.1841	99.5259
6493.1484	99.5714
6494.1123	99.5065
6495.0767	99.1829
6496.0410	98.6144
6497.0054	97.9794
6497.9692	97.5264
6498.9336	97.4402
6499.8979	97.7396
6500.8623	98.2569

##### Extended Information
[Comments]
Sample name
Comment
Username
Division
Organization	Uni Wrzburg

[Detailed Information]
Creation date	10/20/2025 2:24 PM

Data array type	Linear data array
Horizontal axis	Wavenumber [cm-1]
Vertical axis	%T
Start	1999.82 cm-1
End	6500.86 cm-1
Data interval	0.964233 cm-1
Data points	4669    

[Measurement Information]
Model name	FT/IR-4100typeA
Serial No.	C210961016

Measurement date	10/20/2025 2:24 PM

Light source	Standard
Detector	TGS
Accumulation	25
Resolution	4 cm-1
Zero filling	On
Apodization	Cosine
Gain	Auto (8)
Aperture	Auto (7.1 mm)
Scan speed	Auto (2 mm/sec)
Filter	Auto (30000 Hz)

