TITLE	
DATA TYPE	INFRARED SPECTRUM
ORIGIN	JASCO
OWNER	
DATE	25/10/20
TIME	15:07:06
SPECTROMETER/DATA SYSTEM	
LOCALE	1033
RESOLUTION	
DELTAX	0.964233
XUNITS	1/CM
YUNITS	TRANSMITTANCE
FIRSTX	 1999.8202
LASTX	 6500.8621
NPOINTS	    4669
FIRSTY	    96.73602
MAXY	   102.17063
MINY	    90.31177
XYDATA
1999.8202	96.736
2000.7844	96.7145
2001.7487	96.677
2002.7129	96.64
2003.6771	96.6199
2004.6414	96.6248
2005.6056	96.6514
2006.5698	96.6872
2007.5341	96.7177
2008.4983	96.7331
2009.4625	96.732
2010.4268	96.7209
2011.3910	96.7098
2012.3552	96.7076
2013.3195	96.7186
2014.2837	96.7409
2015.2479	96.7667
2016.2122	96.7859
2017.1764	96.7906
2018.1406	96.7787
2019.1049	96.7554
2020.0691	96.7292
2021.0333	96.7077
2021.9976	96.694
2022.9618	96.6857
2023.9260	96.6777
2024.8903	96.6649
2025.8545	96.6463
2026.8187	96.6249
2027.7830	96.6059
2028.7472	96.5944
2029.7114	96.5928
2030.6757	96.6003
2031.6399	96.6142
2032.6041	96.631
2033.5684	96.6479
2034.5326	96.6627
2035.4968	96.6738
2036.4611	96.6798
2037.4253	96.6796
2038.3895	96.6723
2039.3538	96.6572
2040.3180	96.6345
2041.2822	96.6061
2042.2465	96.5755
2043.2107	96.5462
2044.1749	96.5191
2045.1392	96.4914
2046.1034	96.458
2047.0676	96.4157
2048.0320	96.368
2048.9961	96.325
2049.9604	96.2983
2050.9246	96.2934
2051.8889	96.3061
2052.8530	96.324
2053.8174	96.3338
2054.7815	96.3279
2055.7458	96.308
2056.7100	96.2819
2057.6743	96.257
2058.6384	96.2359
2059.6028	96.2162
2060.5669	96.1953
2061.5313	96.1738
2062.4954	96.1565
2063.4597	96.1481
2064.4238	96.1484
2065.3882	96.1504
2066.3523	96.1441
2067.3167	96.1233
2068.2808	96.0906
2069.2451	96.0564
2070.2092	96.0325
2071.1736	96.0246
2072.1377	96.028
2073.1021	96.0301
2074.0662	96.0192
2075.0305	95.9924
2075.9946	95.9583
2076.9590	95.9317
2077.9231	95.9243
2078.8875	95.9371
2079.8516	95.9595
2080.8159	95.9754
2081.7800	95.9723
2082.7444	95.9481
2083.7085	95.9112
2084.6729	95.876
2085.6370	95.8555
2086.6013	95.8562
2087.5654	95.8761
2088.5298	95.9065
2089.4939	95.936
2090.4583	95.9553
2091.4224	95.9608
2092.3867	95.9554
2093.3508	95.9462
2094.3152	95.9399
2095.2793	95.9387
2096.2437	95.939
2097.2078	95.934
2098.1721	95.9192
2099.1362	95.8958
2100.1006	95.8705
2101.0647	95.8514
2102.0291	95.8435
2102.9932	95.8462
2103.9575	95.8541
2104.9216	95.8607
2105.8860	95.8612
2106.8501	95.854
2107.8145	95.8398
2108.7786	95.8208
2109.7429	95.7998
2110.7070	95.7809
2111.6714	95.7689
2112.6355	95.7681
2113.5999	95.7801
2114.5640	95.8017
2115.5283	95.8256
2116.4924	95.8429
2117.4568	95.8474
2118.4209	95.8384
2119.3853	95.8219
2120.3494	95.807
2121.3137	95.8015
2122.2778	95.8079
2123.2422	95.8225
2124.2063	95.8381
2125.1707	95.8482
2126.1348	95.8509
2127.0991	95.8491
2128.0632	95.8486
2129.0276	95.8542
2129.9917	95.8667
2130.9561	95.8828
2131.9202	95.8963
2132.8845	95.9019
2133.8486	95.897
2134.8130	95.8827
2135.7771	95.863
2136.7415	95.8433
2137.7056	95.8288
2138.6699	95.8244
2139.6340	95.8329
2140.5984	95.8542
2141.5625	95.8839
2142.5269	95.9137
2143.4910	95.9345
2144.4553	95.9411
2145.4194	95.9348
2146.3838	95.9233
2147.3479	95.916
2148.3123	95.9185
2149.2764	95.9298
2150.2407	95.9448
2151.2048	95.9589
2152.1692	95.9717
2153.1333	95.9849
2154.0977	95.9985
2155.0618	96.0062
2156.0261	95.9969
2156.9902	95.9612
2157.9546	95.9
2158.9187	95.8266
2159.8831	95.7601
2160.8472	95.7136
2161.8115	95.6882
2162.7756	95.6754
2163.7400	95.6663
2164.7041	95.6574
2165.6685	95.6518
2166.6326	95.6544
2167.5969	95.6666
2168.5610	95.6834
2169.5254	95.6957
2170.4895	95.6947
2171.4539	95.6767
2172.4180	95.6441
2173.3823	95.6043
2174.3464	95.5662
2175.3108	95.5362
2176.2749	95.5155
2177.2393	95.5006
2178.2034	95.4856
2179.1677	95.4658
2180.1318	95.4399
2181.0962	95.4098
2182.0603	95.3781
2183.0247	95.3455
2183.9888	95.3107
2184.9531	95.2725
2185.9172	95.2336
2186.8816	95.201
2187.8457	95.1833
2188.8101	95.186
2189.7742	95.207
2190.7385	95.237
2191.7026	95.2638
2192.6670	95.2784
2193.6311	95.279
2194.5955	95.2708
2195.5596	95.262
2196.5239	95.259
2197.4880	95.2624
2198.4524	95.2677
2199.4165	95.2678
2200.3809	95.2576
2201.3450	95.2366
2202.3093	95.2093
2203.2734	95.1828
2204.2378	95.1632
2205.2019	95.1531
2206.1663	95.1511
2207.1304	95.1534
2208.0947	95.1555
2209.0588	95.1539
2210.0232	95.1461
2210.9873	95.1308
2211.9517	95.1082
2212.9158	95.0806
2213.8801	95.0516
2214.8442	95.0247
2215.8086	95.0008
2216.7727	94.9784
2217.7371	94.9547
2218.7012	94.9289
2219.6655	94.9032
2220.6296	94.8806
2221.5940	94.8619
2222.5581	94.8435
2223.5225	94.8201
2224.4866	94.79
2225.4509	94.7585
2226.4150	94.7363
2227.3794	94.7323
2228.3435	94.7463
2229.3079	94.7668
2230.2720	94.7769
2231.2363	94.7641
2232.2004	94.7279
2233.1648	94.6795
2234.1289	94.6352
2235.0933	94.6071
2236.0574	94.5978
2237.0217	94.6013
2237.9858	94.6081
2238.9502	94.6107
2239.9143	94.6055
2240.8787	94.5921
2241.8428	94.5704
2242.8071	94.5402
2243.7712	94.5019
2244.7356	94.4592
2245.6997	94.4208
2246.6641	94.3989
2247.6282	94.4045
2248.5925	94.4413
2249.5566	94.5018
2250.5210	94.5679
2251.4851	94.6169
2252.4495	94.6307
2253.4136	94.6046
2254.3779	94.5502
2255.3420	94.4907
2256.3064	94.4508
2257.2705	94.4459
2258.2349	94.4763
2259.1990	94.5285
2260.1633	94.583
2261.1274	94.6226
2262.0918	94.6386
2263.0559	94.6322
2264.0203	94.6109
2264.9844	94.5836
2265.9487	94.5575
2266.9128	94.5367
2267.8772	94.5233
2268.8413	94.5184
2269.8057	94.5215
2270.7698	94.5298
2271.7341	94.5382
2272.6982	94.5406
2273.6626	94.5318
2274.6267	94.5098
2275.5911	94.4765
2276.5552	94.4367
2277.5195	94.3962
2278.4836	94.3604
2279.4480	94.333
2280.4121	94.3157
2281.3765	94.3074
2282.3406	94.3039
2283.3049	94.2994
2284.2690	94.2883
2285.2334	94.2682
2286.1975	94.2412
2287.1619	94.2141
2288.1260	94.1954
2289.0903	94.1916
2290.0544	94.2046
2291.0188	94.2302
2291.9829	94.2597
2292.9473	94.2827
2293.9114	94.2909
2294.8757	94.2807
2295.8398	94.2549
2296.8042	94.2218
2297.7683	94.1914
2298.7327	94.1712
2299.6968	94.1626
2300.6611	94.1606
2301.6252	94.1572
2302.5896	94.1458
2303.5537	94.1252
2304.5181	94.0998
2305.4822	94.0763
2306.4465	94.0593
2307.4106	94.0491
2308.3750	94.042
2309.3391	94.0332
2310.3035	94.0201
2311.2676	94.0033
2312.2319	93.985
2313.1960	93.9676
2314.1604	93.9522
2315.1245	93.9386
2316.0889	93.9264
2317.0530	93.9149
2318.0173	93.9026
2318.9814	93.8877
2319.9458	93.8687
2320.9099	93.8468
2321.8743	93.8265
2322.8384	93.8129
2323.8027	93.8092
2324.7668	93.814
2325.7312	93.8219
2326.6953	93.8271
2327.6597	93.8259
2328.6238	93.8187
2329.5881	93.8089
2330.5522	93.8001
2331.5166	93.7941
2332.4807	93.7898
2333.4451	93.7848
2334.4092	93.7765
2335.3735	93.7629
2336.3376	93.7429
2337.3020	93.7169
2338.2661	93.6873
2339.2305	93.6592
2340.1946	93.6381
2341.1589	93.6271
2342.1230	93.6246
2343.0874	93.6253
2344.0515	93.6229
2345.0159	93.6143
2345.9800	93.601
2346.9443	93.5855
2347.9084	93.5695
2348.8728	93.5522
2349.8369	93.5322
2350.8013	93.5093
2351.7654	93.4858
2352.7297	93.4667
2353.6938	93.4561
2354.6582	93.4536
2355.6223	93.4529
2356.5867	93.4461
2357.5508	93.4298
2358.5151	93.4077
2359.4792	93.388
2360.4436	93.3786
2361.4077	93.3819
2362.3721	93.3946
2363.3362	93.4095
2364.3005	93.4189
2365.2646	93.4162
2366.2290	93.398
2367.1931	93.3653
2368.1575	93.3243
2369.1216	93.2843
2370.0859	93.2541
2371.0500	93.2379
2372.0144	93.2336
2372.9785	93.2351
2373.9429	93.2363
2374.9070	93.2348
2375.8713	93.2318
2376.8354	93.2297
2377.7998	93.2295
2378.7639	93.2292
2379.7283	93.2257
2380.6924	93.2171
2381.6567	93.2041
2382.6208	93.19
2383.5852	93.1787
2384.5493	93.1727
2385.5137	93.1721
2386.4778	93.1745
2387.4421	93.1767
2388.4063	93.1753
2389.3706	93.1685
2390.3347	93.1561
2391.2991	93.1402
2392.2632	93.1242
2393.2275	93.1111
2394.1917	93.1023
2395.1560	93.0963
2396.1201	93.0894
2397.0845	93.0783
2398.0486	93.062
2399.0129	93.0425
2399.9771	93.0236
2400.9414	93.0088
2401.9055	92.9982
2402.8699	92.9889
2403.8340	92.976
2404.7983	92.9559
2405.7625	92.9286
2406.7268	92.898
2407.6909	92.8703
2408.6553	92.8507
2409.6194	92.8409
2410.5837	92.8377
2411.5479	92.8349
2412.5122	92.8262
2413.4763	92.8088
2414.4407	92.7842
2415.4048	92.7572
2416.3691	92.7327
2417.3333	92.7133
2418.2976	92.6981
2419.2617	92.684
2420.2261	92.668
2421.1902	92.6494
2422.1545	92.6301
2423.1187	92.613
2424.0830	92.5998
2425.0471	92.5895
2426.0115	92.5784
2426.9756	92.5622
2427.9399	92.5385
2428.9041	92.5084
2429.8684	92.4762
2430.8325	92.4474
2431.7969	92.4257
2432.7610	92.4112
2433.7253	92.4006
2434.6895	92.3895
2435.6538	92.3745
2436.6179	92.3548
2437.5823	92.3317
2438.5464	92.3068
2439.5107	92.2809
2440.4749	92.2541
2441.4392	92.2259
2442.4033	92.1969
2443.3677	92.1681
2444.3318	92.1406
2445.2961	92.1147
2446.2603	92.0902
2447.2246	92.0663
2448.1887	92.0426
2449.1531	92.0189
2450.1172	91.9953
2451.0815	91.972
2452.0457	91.9498
2453.0100	91.9295
2453.9741	91.9118
2454.9385	91.8959
2455.9026	91.8793
2456.8669	91.8582
2457.8311	91.8303
2458.7954	91.7962
2459.7595	91.7603
2460.7239	91.7282
2461.6880	91.7034
2462.6523	91.6847
2463.6165	91.667
2464.5808	91.644
2465.5449	91.6125
2466.5093	91.5744
2467.4734	91.535
2468.4377	91.4997
2469.4019	91.4709
2470.3662	91.447
2471.3303	91.4238
2472.2947	91.3974
2473.2588	91.3661
2474.2231	91.3303
2475.1873	91.2921
2476.1516	91.2533
2477.1157	91.2156
2478.0801	91.1802
2479.0442	91.1477
2480.0085	91.1179
2480.9727	91.09
2481.9370	91.0626
2482.9011	91.0347
2483.8655	91.0065
2484.8296	90.9799
2485.7939	90.9571
2486.7581	90.9392
2487.7224	90.9252
2488.6865	90.9115
2489.6509	90.8943
2490.6150	90.8713
2491.5793	90.8426
2492.5435	90.8104
2493.5078	90.7766
2494.4719	90.742
2495.4363	90.7054
2496.4004	90.6662
2497.3647	90.6254
2498.3289	90.5858
2499.2932	90.5511
2500.2573	90.5234
2501.2217	90.502
2502.1858	90.4841
2503.1501	90.4669
2504.1143	90.4491
2505.0786	90.4312
2506.0427	90.4144
2507.0071	90.3991
2507.9712	90.3848
2508.9355	90.3708
2509.8997	90.3574
2510.8640	90.347
2511.8281	90.3432
2512.7925	90.3493
2513.7566	90.3657
2514.7209	90.3891
2515.6851	90.4131
2516.6494	90.4304
2517.6135	90.4366
2518.5779	90.4321
2519.5420	90.4219
2520.5063	90.413
2521.4705	90.4099
2522.4348	90.413
2523.3989	90.4184
2524.3633	90.4214
2525.3274	90.4198
2526.2917	90.415
2527.2559	90.411
2528.2202	90.4107
2529.1843	90.4149
2530.1487	90.4224
2531.1128	90.4325
2532.0771	90.4462
2533.0413	90.4667
2534.0056	90.4969
2534.9697	90.5383
2535.9341	90.5904
2536.8982	90.6517
2537.8625	90.7209
2538.8267	90.7969
2539.7910	90.8776
2540.7551	90.9596
2541.7195	91.0385
2542.6836	91.1107
2543.6479	91.1752
2544.6121	91.2339
2545.5764	91.289
2546.5405	91.3412
2547.5049	91.3881
2548.4690	91.4249
2549.4333	91.4478
2550.3975	91.4557
2551.3618	91.4513
2552.3259	91.4395
2553.2903	91.4251
2554.2544	91.411
2555.2188	91.3979
2556.1829	91.3858
2557.1472	91.3743
2558.1113	91.3639
2559.0757	91.3552
2560.0398	91.3484
2561.0042	91.343
2561.9683	91.338
2562.9326	91.3329
2563.8967	91.3278
2564.8611	91.3241
2565.8252	91.3232
2566.7896	91.3256
2567.7537	91.3297
2568.7180	91.3313
2569.6821	91.3252
2570.6465	91.3074
2571.6106	91.2776
2572.5750	91.2401
2573.5391	91.2033
2574.5034	91.1763
2575.4675	91.165
2576.4319	91.1698
2577.3960	91.1854
2578.3604	91.204
2579.3245	91.2199
2580.2888	91.2326
2581.2529	91.2472
2582.2173	91.2712
2583.1814	91.3102
2584.1458	91.3642
2585.1099	91.4281
2586.0742	91.494
2587.0383	91.5561
2588.0027	91.6127
2588.9668	91.6653
2589.9312	91.7162
2590.8953	91.7655
2591.8596	91.8101
2592.8237	91.8461
2593.7881	91.8708
2594.7522	91.8845
2595.7166	91.8897
2596.6807	91.8898
2597.6450	91.8868
2598.6091	91.8812
2599.5735	91.8726
2600.5376	91.8611
2601.5020	91.8483
2602.4661	91.8368
2603.4304	91.8293
2604.3945	91.8271
2605.3589	91.8295
2606.3230	91.8334
2607.2874	91.8346
2608.2515	91.8292
2609.2158	91.8155
2610.1799	91.7945
2611.1443	91.7694
2612.1084	91.7441
2613.0728	91.7216
2614.0369	91.703
2615.0012	91.6873
2615.9653	91.6724
2616.9297	91.6552
2617.8938	91.6329
2618.8582	91.6037
2619.8223	91.5674
2620.7866	91.5261
2621.7507	91.484
2622.7151	91.4461
2623.6792	91.4157
2624.6436	91.3931
2625.6077	91.375
2626.5720	91.356
2627.5361	91.3308
2628.5005	91.2967
2629.4646	91.2544
2630.4290	91.2077
2631.3931	91.1617
2632.3574	91.1209
2633.3215	91.0871
2634.2859	91.0596
2635.2500	91.0357
2636.2144	91.0121
2637.1785	90.9867
2638.1428	90.9589
2639.1069	90.9291
2640.0713	90.8984
2641.0354	90.8674
2641.9998	90.8363
2642.9639	90.8053
2643.9282	90.7745
2644.8923	90.7442
2645.8567	90.7148
2646.8208	90.6869
2647.7852	90.6612
2648.7493	90.6385
2649.7136	90.6195
2650.6777	90.6046
2651.6421	90.5929
2652.6062	90.5833
2653.5706	90.5744
2654.5347	90.5663
2655.4990	90.56
2656.4631	90.5579
2657.4275	90.5619
2658.3916	90.5727
2659.3560	90.5892
2660.3201	90.6089
2661.2844	90.6291
2662.2485	90.6481
2663.2129	90.6656
2664.1770	90.6823
2665.1414	90.699
2666.1055	90.716
2667.0698	90.7326
2668.0339	90.7481
2668.9983	90.7619
2669.9624	90.7741
2670.9268	90.7847
2671.8909	90.7939
2672.8552	90.8012
2673.8193	90.8064
2674.7837	90.8095
2675.7478	90.8115
2676.7122	90.8132
2677.6763	90.8152
2678.6406	90.8171
2679.6047	90.8186
2680.5691	90.82
2681.5332	90.8229
2682.4976	90.8291
2683.4617	90.8398
2684.4260	90.8542
2685.3901	90.8699
2686.3545	90.8841
2687.3186	90.8951
2688.2830	90.9035
2689.2471	90.9113
2690.2114	90.9206
2691.1755	90.9319
2692.1399	90.9448
2693.1040	90.9585
2694.0684	90.9738
2695.0325	90.9927
2695.9968	91.0174
2696.9609	91.049
2697.9253	91.0862
2698.8894	91.1258
2699.8538	91.1649
2700.8179	91.2018
2701.7822	91.2366
2702.7463	91.2705
2703.7107	91.3042
2704.6748	91.338
2705.6392	91.3712
2706.6033	91.4039
2707.5676	91.4363
2708.5317	91.4693
2709.4961	91.5029
2710.4602	91.5356
2711.4246	91.5648
2712.3887	91.5877
2713.3530	91.6031
2714.3171	91.612
2715.2815	91.6175
2716.2456	91.6232
2717.2100	91.6321
2718.1741	91.6454
2719.1384	91.6624
2720.1025	91.6817
2721.0669	91.7016
2722.0310	91.7214
2722.9954	91.7406
2723.9595	91.7585
2724.9238	91.774
2725.8879	91.7858
2726.8523	91.7929
2727.8164	91.7955
2728.7808	91.7953
2729.7449	91.7947
2730.7092	91.7957
2731.6733	91.7991
2732.6377	91.804
2733.6018	91.8083
2734.5662	91.8097
2735.5303	91.8065
2736.4946	91.7982
2737.4587	91.7853
2738.4231	91.7687
2739.3872	91.7497
2740.3516	91.7297
2741.3157	91.7101
2742.2800	91.6921
2743.2441	91.6761
2744.2085	91.662
2745.1726	91.6489
2746.1370	91.6355
2747.1011	91.6209
2748.0654	91.6055
2749.0295	91.5899
2749.9939	91.5754
2750.9580	91.5622
2751.9224	91.5496
2752.8865	91.5359
2753.8508	91.519
2754.8149	91.498
2755.7793	91.4738
2756.7434	91.4491
2757.7078	91.4277
2758.6719	91.4124
2759.6362	91.4039
2760.6003	91.3994
2761.5647	91.3939
2762.5288	91.3824
2763.4932	91.3621
2764.4573	91.3332
2765.4216	91.2991
2766.3857	91.2645
2767.3501	91.2335
2768.3142	91.2085
2769.2786	91.1896
2770.2427	91.1751
2771.2070	91.1618
2772.1711	91.1462
2773.1355	91.1256
2774.0996	91.0997
2775.0640	91.0703
2776.0281	91.0412
2776.9924	91.0155
2777.9565	90.9944
2778.9209	90.9762
2779.8850	90.9577
2780.8494	90.9362
2781.8135	90.9114
2782.7778	90.8844
2783.7419	90.8576
2784.7063	90.8322
2785.6704	90.8083
2786.6348	90.7856
2787.5989	90.7642
2788.5632	90.7445
2789.5273	90.7275
2790.4917	90.713
2791.4558	90.6997
2792.4202	90.6855
2793.3843	90.6684
2794.3486	90.648
2795.3127	90.6253
2796.2771	90.6025
2797.2412	90.5813
2798.2056	90.5626
2799.1697	90.5459
2800.1340	90.5299
2801.0981	90.5141
2802.0625	90.499
2803.0266	90.4863
2803.9910	90.4774
2804.9551	90.4723
2805.9194	90.4688
2806.8835	90.4634
2807.8479	90.4527
2808.8120	90.4354
2809.7764	90.413
2810.7405	90.3891
2811.7048	90.3678
2812.6689	90.3527
2813.6333	90.3452
2814.5974	90.3444
2815.5618	90.3475
2816.5259	90.3502
2817.4902	90.3486
2818.4543	90.3408
2819.4187	90.3287
2820.3828	90.3171
2821.3472	90.3118
2822.3113	90.3161
2823.2756	90.329
2824.2397	90.3451
2825.2041	90.3577
2826.1682	90.3628
2827.1326	90.3608
2828.0967	90.3565
2829.0610	90.3555
2830.0251	90.3609
2830.9895	90.3718
2831.9536	90.3837
2832.9180	90.3921
2833.8821	90.3951
2834.8464	90.3951
2835.8105	90.397
2836.7749	90.4054
2837.7390	90.4216
2838.7034	90.4429
2839.6675	90.4633
2840.6318	90.4769
2841.5959	90.4802
2842.5603	90.4735
2843.5244	90.4607
2844.4888	90.4464
2845.4529	90.4339
2846.4172	90.4238
2847.3813	90.4145
2848.3457	90.4034
2849.3098	90.3898
2850.2742	90.3755
2851.2383	90.364
2852.2026	90.3587
2853.1667	90.36
2854.1311	90.3652
2855.0952	90.3698
2856.0596	90.3703
2857.0237	90.3662
2857.9880	90.3597
2858.9521	90.3542
2859.9165	90.3515
2860.8806	90.3512
2861.8450	90.3514
2862.8091	90.3513
2863.7734	90.3518
2864.7375	90.3556
2865.7019	90.3658
2866.6660	90.3835
2867.6304	90.4072
2868.5945	90.4338
2869.5588	90.4599
2870.5229	90.483
2871.4873	90.5035
2872.4514	90.5238
2873.4158	90.5478
2874.3799	90.579
2875.3442	90.6186
2876.3083	90.6646
2877.2727	90.7126
2878.2368	90.7584
2879.2012	90.8003
2880.1653	90.8401
2881.1296	90.8814
2882.0938	90.9265
2883.0581	90.9745
2884.0222	91.0208
2884.9866	91.0605
2885.9507	91.0911
2886.9150	91.114
2887.8792	91.1326
2888.8435	91.1503
2889.8076	91.1677
2890.7720	91.1834
2891.7361	91.1958
2892.7004	91.2045
2893.6646	91.2107
2894.6289	91.216
2895.5930	91.2216
2896.5574	91.2276
2897.5215	91.2346
2898.4858	91.2439
2899.4500	91.2572
2900.4143	91.2745
2901.3784	91.2929
2902.3428	91.3068
2903.3069	91.3108
2904.2712	91.303
2905.2354	91.2865
2906.1997	91.2683
2907.1638	91.2555
2908.1282	91.252
2909.0923	91.2571
2910.0566	91.2668
2911.0208	91.2764
2911.9851	91.2833
2912.9492	91.2878
2913.9136	91.2928
2914.8777	91.301
2915.8420	91.3135
2916.8062	91.329
2917.7705	91.3449
2918.7346	91.3597
2919.6990	91.3744
2920.6631	91.3925
2921.6274	91.4179
2922.5916	91.4527
2923.5559	91.4948
2924.5200	91.5381
2925.4844	91.5755
2926.4485	91.6011
2927.4128	91.6125
2928.3770	91.6115
2929.3413	91.6027
2930.3054	91.5917
2931.2698	91.584
2932.2339	91.5832
2933.1982	91.5904
2934.1624	91.604
2935.1267	91.62
2936.0908	91.6339
2937.0552	91.6422
2938.0193	91.6434
2938.9836	91.6381
2939.9478	91.6285
2940.9121	91.6167
2941.8762	91.6051
2942.8406	91.5961
2943.8047	91.5921
2944.7690	91.5948
2945.7332	91.6046
2946.6975	91.6199
2947.6616	91.6377
2948.6260	91.6552
2949.5901	91.6703
2950.5544	91.6819
2951.5186	91.6891
2952.4829	91.6905
2953.4470	91.6852
2954.4114	91.6735
2955.3755	91.6587
2956.3398	91.646
2957.3040	91.6408
2958.2683	91.6455
2959.2324	91.6584
2960.1968	91.674
2961.1609	91.6853
2962.1252	91.6872
2963.0894	91.6779
2964.0537	91.6594
2965.0178	91.6362
2965.9822	91.6143
2966.9463	91.5988
2967.9106	91.5928
2968.8748	91.596
2969.8391	91.6049
2970.8032	91.6132
2971.7676	91.6148
2972.7317	91.6064
2973.6960	91.5901
2974.6602	91.572
2975.6245	91.5595
2976.5886	91.5565
2977.5530	91.5618
2978.5171	91.5692
2979.4814	91.5715
2980.4456	91.5652
2981.4099	91.5522
2982.3740	91.539
2983.3384	91.5322
2984.3025	91.5349
2985.2668	91.5447
2986.2310	91.5555
2987.1953	91.5616
2988.1594	91.5611
2989.1238	91.5568
2990.0879	91.5543
2991.0522	91.5584
2992.0164	91.5707
2992.9807	91.5891
2993.9448	91.6099
2994.9092	91.6303
2995.8733	91.6498
2996.8376	91.6692
2997.8018	91.6887
2998.7661	91.7069
2999.7302	91.7216
3000.6946	91.7316
3001.6587	91.7383
3002.6230	91.7452
3003.5872	91.7558
3004.5515	91.7714
3005.5156	91.7903
3006.4800	91.8096
3007.4441	91.8271
3008.4084	91.8429
3009.3726	91.8588
3010.3369	91.8767
3011.3010	91.8974
3012.2654	91.9201
3013.2295	91.9435
3014.1938	91.9666
3015.1580	91.9886
3016.1223	92.0093
3017.0864	92.0283
3018.0508	92.0452
3019.0149	92.0606
3019.9792	92.075
3020.9434	92.0889
3021.9077	92.1022
3022.8718	92.1144
3023.8362	92.1261
3024.8003	92.139
3025.7646	92.1555
3026.7290	92.1771
3027.6931	92.2024
3028.6572	92.2272
3029.6216	92.2464
3030.5859	92.2574
3031.5500	92.2614
3032.5142	92.2628
3033.4785	92.2659
3034.4429	92.2723
3035.4070	92.2804
3036.3711	92.2868
3037.3354	92.2899
3038.2998	92.2909
3039.2639	92.2941
3040.2280	92.304
3041.1924	92.3227
3042.1567	92.3488
3043.1208	92.3775
3044.0850	92.403
3045.0493	92.4208
3046.0137	92.429
3046.9778	92.4294
3047.9419	92.4262
3048.9063	92.4243
3049.8706	92.427
3050.8347	92.4356
3051.7988	92.4488
3052.7632	92.4648
3053.7275	92.4821
3054.6917	92.5001
3055.6558	92.5181
3056.6201	92.5338
3057.5845	92.5439
3058.5486	92.5451
3059.5127	92.5371
3060.4771	92.5233
3061.4414	92.5092
3062.4055	92.4995
3063.3696	92.4951
3064.3340	92.4922
3065.2983	92.485
3066.2625	92.4694
3067.2266	92.4441
3068.1909	92.4097
3069.1553	92.3656
3070.1194	92.3081
3071.0835	92.2324
3072.0479	92.1359
3073.0122	92.0205
3073.9763	91.8912
3074.9404	91.7509
3075.9048	91.5968
3076.8691	91.4215
3077.8333	91.2213
3078.7974	91.0057
3079.7617	90.8027
3080.7261	90.6538
3081.6902	90.6006
3082.6543	90.6698
3083.6187	90.864
3084.5830	91.1621
3085.5471	91.5277
3086.5112	91.9197
3087.4756	92.3008
3088.4399	92.6433
3089.4041	92.931
3090.3682	93.1592
3091.3325	93.3315
3092.2969	93.4564
3093.2610	93.5429
3094.2251	93.5977
3095.1895	93.6256
3096.1538	93.6321
3097.1179	93.6256
3098.0820	93.6175
3099.0464	93.6196
3100.0107	93.6408
3100.9749	93.6847
3101.9390	93.7497
3102.9033	93.8315
3103.8677	93.9246
3104.8318	94.0234
3105.7959	94.1223
3106.7603	94.2155
3107.7246	94.2982
3108.6887	94.3686
3109.6528	94.4282
3110.6172	94.4811
3111.5815	94.5316
3112.5457	94.5816
3113.5098	94.6298
3114.4741	94.6732
3115.4385	94.7085
3116.4026	94.7342
3117.3667	94.7512
3118.3311	94.7618
3119.2954	94.769
3120.2595	94.7755
3121.2236	94.7842
3122.1880	94.7983
3123.1523	94.8206
3124.1165	94.8527
3125.0806	94.8927
3126.0449	94.9359
3127.0093	94.9757
3127.9734	95.0074
3128.9375	95.0302
3129.9019	95.0477
3130.8662	95.0656
3131.8303	95.089
3132.7944	95.1198
3133.7588	95.1564
3134.7231	95.195
3135.6873	95.2317
3136.6514	95.2633
3137.6157	95.289
3138.5801	95.3095
3139.5442	95.3275
3140.5083	95.346
3141.4727	95.3671
3142.4370	95.3901
3143.4011	95.412
3144.3652	95.4294
3145.3296	95.4414
3146.2939	95.4512
3147.2581	95.4646
3148.2222	95.4863
3149.1865	95.5162
3150.1509	95.5486
3151.1150	95.575
3152.0791	95.5892
3153.0435	95.5916
3154.0078	95.5891
3154.9719	95.5912
3155.9360	95.6049
3156.9004	95.6308
3157.8647	95.664
3158.8289	95.6976
3159.7930	95.7272
3160.7573	95.7531
3161.7217	95.7786
3162.6858	95.8065
3163.6499	95.8365
3164.6143	95.8649
3165.5786	95.8883
3166.5427	95.9059
3167.5068	95.9214
3168.4712	95.9398
3169.4355	95.9645
3170.3997	95.9938
3171.3638	96.0226
3172.3281	96.0454
3173.2925	96.0602
3174.2566	96.0695
3175.2207	96.0784
3176.1851	96.0916
3177.1494	96.1102
3178.1135	96.1323
3179.0776	96.1542
3180.0420	96.174
3181.0063	96.1919
3181.9705	96.2107
3182.9346	96.2325
3183.8989	96.2581
3184.8633	96.2854
3185.8274	96.3114
3186.7915	96.3334
3187.7559	96.3513
3188.7202	96.3671
3189.6843	96.3838
3190.6484	96.403
3191.6128	96.4244
3192.5771	96.4462
3193.5413	96.4671
3194.5054	96.4881
3195.4697	96.5123
3196.4341	96.5422
3197.3982	96.5779
3198.3623	96.615
3199.3267	96.6472
3200.2910	96.6693
3201.2551	96.6808
3202.2192	96.6864
3203.1836	96.694
3204.1479	96.7101
3205.1121	96.7366
3206.0762	96.769
3207.0405	96.7994
3208.0049	96.8205
3208.9690	96.8301
3209.9331	96.832
3210.8975	96.8344
3211.8618	96.845
3212.8259	96.8666
3213.7900	96.8966
3214.7544	96.9286
3215.7188	96.9566
3216.6829	96.9783
3217.6470	96.9951
3218.6113	97.0099
3219.5757	97.0241
3220.5398	97.0375
3221.5039	97.0493
3222.4683	97.0606
3223.4326	97.0747
3224.3967	97.0948
3225.3608	97.1216
3226.3252	97.152
3227.2896	97.1811
3228.2537	97.2055
3229.2178	97.2255
3230.1821	97.2438
3231.1465	97.2623
3232.1106	97.2796
3233.0747	97.2916
3234.0391	97.2956
3235.0034	97.2935
3235.9675	97.293
3236.9316	97.3037
3237.8960	97.3319
3238.8604	97.3764
3239.8245	97.4285
3240.7886	97.4761
3241.7529	97.5087
3242.7173	97.5217
3243.6814	97.5174
3244.6455	97.5039
3245.6099	97.4914
3246.5742	97.4886
3247.5383	97.4997
3248.5024	97.5237
3249.4668	97.5554
3250.4312	97.5879
3251.3953	97.6159
3252.3594	97.6364
3253.3237	97.6495
3254.2881	97.657
3255.2522	97.6612
3256.2163	97.6641
3257.1807	97.6669
3258.1450	97.6705
3259.1091	97.675
3260.0732	97.6806
3261.0376	97.6882
3262.0020	97.6993
3262.9661	97.7159
3263.9302	97.7384
3264.8945	97.7643
3265.8589	97.7885
3266.8230	97.8057
3267.7871	97.8146
3268.7515	97.819
3269.7158	97.8266
3270.6799	97.8441
3271.6440	97.8732
3272.6084	97.9094
3273.5728	97.9456
3274.5369	97.9761
3275.5010	98
3276.4653	98.0196
3277.4297	98.0378
3278.3938	98.055
3279.3579	98.0695
3280.3223	98.0809
3281.2866	98.0914
3282.2507	98.1053
3283.2148	98.1261
3284.1792	98.1531
3285.1436	98.1814
3286.1077	98.2053
3287.0718	98.2215
3288.0361	98.2314
3289.0005	98.2388
3289.9646	98.2467
3290.9287	98.2549
3291.8931	98.2607
3292.8574	98.2612
3293.8215	98.2566
3294.7856	98.2505
3295.7500	98.2481
3296.7144	98.2542
3297.6785	98.2712
3298.6426	98.2991
3299.6069	98.3356
3300.5713	98.3763
3301.5354	98.4153
3302.4995	98.4455
3303.4639	98.4607
3304.4282	98.458
3305.3923	98.44
3306.3564	98.415
3307.3208	98.3943
3308.2852	98.3887
3309.2493	98.4035
3310.2134	98.437
3311.1777	98.4807
3312.1421	98.5233
3313.1062	98.5551
3314.0703	98.5714
3315.0347	98.5728
3315.9990	98.5639
3316.9631	98.5497
3317.9272	98.5346
3318.8916	98.5214
3319.8560	98.5126
3320.8201	98.511
3321.7842	98.5185
3322.7485	98.5354
3323.7129	98.559
3324.6770	98.5857
3325.6411	98.6117
3326.6055	98.6356
3327.5698	98.657
3328.5339	98.6752
3329.4980	98.6881
3330.4624	98.6928
3331.4268	98.6884
3332.3909	98.6782
3333.3550	98.669
3334.3193	98.6689
3335.2837	98.6826
3336.2478	98.7091
3337.2119	98.7426
3338.1763	98.7754
3339.1406	98.8009
3340.1047	98.8163
3341.0688	98.8218
3342.0332	98.8201
3342.9976	98.8154
3343.9617	98.8117
3344.9258	98.8125
3345.8901	98.819
3346.8545	98.8298
3347.8186	98.8422
3348.7827	98.8535
3349.7471	98.8634
3350.7114	98.8738
3351.6755	98.8869
3352.6396	98.9032
3353.6040	98.9199
3354.5684	98.9321
3355.5325	98.9356
3356.4966	98.93
3357.4609	98.9192
3358.4253	98.9095
3359.3894	98.9067
3360.3535	98.913
3361.3179	98.9264
3362.2822	98.9418
3363.2463	98.9544
3364.2104	98.9615
3365.1748	98.9641
3366.1392	98.9661
3367.1033	98.9709
3368.0674	98.9795
3369.0317	98.9893
3369.9961	98.9954
3370.9602	98.994
3371.9243	98.9855
3372.8887	98.9747
3373.8530	98.9689
3374.8171	98.9735
3375.7813	98.989
3376.7456	99.0102
3377.7100	99.0289
3378.6741	99.0384
3379.6382	99.0368
3380.6025	99.0278
3381.5669	99.0186
3382.5310	99.0157
3383.4951	99.0218
3384.4595	99.0351
3385.4238	99.0508
3386.3879	99.0648
3387.3521	99.0758
3388.3164	99.0852
3389.2808	99.0943
3390.2449	99.1025
3391.2090	99.1064
3392.1733	99.1029
3393.1377	99.0923
3394.1018	99.0797
3395.0659	99.0725
3396.0303	99.0754
3396.9946	99.0871
3397.9587	99.101
3398.9229	99.1101
3399.8872	99.112
3400.8516	99.1106
3401.8157	99.1128
3402.7798	99.1229
3403.7441	99.1394
3404.7085	99.156
3405.6726	99.1667
3406.6367	99.1704
3407.6011	99.1716
3408.5654	99.1773
3409.5295	99.1916
3410.4937	99.2133
3411.4580	99.2371
3412.4224	99.2576
3413.3865	99.2723
3414.3506	99.2824
3415.3149	99.2904
3416.2793	99.2973
3417.2434	99.3008
3418.2075	99.2971
3419.1719	99.2836
3420.1362	99.2624
3421.1003	99.2407
3422.0645	99.228
3423.0288	99.2309
3423.9932	99.249
3424.9573	99.2738
3425.9214	99.2927
3426.8857	99.2946
3427.8501	99.2757
3428.8142	99.2415
3429.7783	99.2041
3430.7427	99.1752
3431.7070	99.1616
3432.6711	99.1635
3433.6353	99.176
3434.5996	99.1933
3435.5640	99.2101
3436.5281	99.2229
3437.4922	99.2294
3438.4565	99.2287
3439.4209	99.2227
3440.3850	99.2159
3441.3491	99.2139
3442.3135	99.22
3443.2778	99.2325
3444.2419	99.2456
3445.2061	99.2525
3446.1704	99.2493
3447.1348	99.2377
3448.0989	99.2238
3449.0630	99.214
3450.0273	99.2122
3450.9917	99.2183
3451.9558	99.2295
3452.9199	99.2417
3453.8843	99.2512
3454.8486	99.2552
3455.8127	99.2533
3456.7769	99.247
3457.7412	99.2396
3458.7056	99.2345
3459.6697	99.2335
3460.6338	99.2355
3461.5981	99.2368
3462.5625	99.2335
3463.5266	99.2236
3464.4907	99.2089
3465.4551	99.1944
3466.4194	99.1866
3467.3835	99.1902
3468.3477	99.2067
3469.3120	99.234
3470.2764	99.2679
3471.2405	99.3045
3472.2046	99.3409
3473.1689	99.3746
3474.1333	99.4023
3475.0974	99.4194
3476.0615	99.4204
3477.0259	99.4019
3477.9902	99.3645
3478.9543	99.3136
3479.9185	99.2583
3480.8828	99.2094
3481.8472	99.1758
3482.8113	99.1625
3483.7754	99.1695
3484.7397	99.1925
3485.7041	99.2242
3486.6682	99.2547
3487.6323	99.2738
3488.5967	99.274
3489.5610	99.2541
3490.5251	99.2205
3491.4893	99.1852
3492.4536	99.1611
3493.4180	99.1572
3494.3821	99.1744
3495.3462	99.2052
3496.3105	99.2363
3497.2749	99.2552
3498.2390	99.2553
3499.2031	99.2393
3500.1675	99.2175
3501.1318	99.2038
3502.0959	99.2097
3503.0601	99.2376
3504.0244	99.2799
3504.9888	99.3219
3505.9529	99.3501
3506.9170	99.3566
3507.8813	99.3412
3508.8457	99.3107
3509.8098	99.276
3510.7739	99.2486
3511.7383	99.2364
3512.7026	99.2418
3513.6667	99.2616
3514.6309	99.2883
3515.5952	99.3122
3516.5596	99.324
3517.5237	99.3182
3518.4878	99.2949
3519.4521	99.2598
3520.4165	99.2221
3521.3806	99.1916
3522.3447	99.1755
3523.3091	99.1764
3524.2734	99.1914
3525.2375	99.2139
3526.2017	99.2361
3527.1660	99.2518
3528.1304	99.2578
3529.0945	99.2549
3530.0586	99.2463
3531.0229	99.2366
3531.9873	99.2295
3532.9514	99.2278
3533.9155	99.2324
3534.8799	99.2424
3535.8442	99.255
3536.8083	99.2659
3537.7725	99.2721
3538.7368	99.2723
3539.7012	99.268
3540.6653	99.2614
3541.6294	99.2543
3542.5938	99.2471
3543.5581	99.239
3544.5222	99.2296
3545.4863	99.2201
3546.4507	99.2127
3547.4150	99.2086
3548.3792	99.2068
3549.3433	99.2042
3550.3076	99.1973
3551.2720	99.1847
3552.2361	99.1677
3553.2002	99.15
3554.1646	99.1353
3555.1289	99.1257
3556.0930	99.1224
3557.0571	99.1264
3558.0215	99.1397
3558.9858	99.1636
3559.9500	99.1961
3560.9141	99.2298
3561.8784	99.2536
3562.8428	99.2557
3563.8069	99.2284
3564.7710	99.1733
3565.7354	99.1055
3566.6997	99.0506
3567.6638	99.0295
3568.6279	99.0439
3569.5923	99.0793
3570.5566	99.1187
3571.5208	99.1511
3572.4849	99.1721
3573.4492	99.1811
3574.4136	99.1802
3575.3777	99.1729
3576.3418	99.1635
3577.3062	99.1563
3578.2705	99.1545
3579.2346	99.1591
3580.1987	99.1686
3581.1631	99.1801
3582.1274	99.191
3583.0916	99.1994
3584.0557	99.2028
3585.0200	99.1977
3585.9844	99.1802
3586.9485	99.1507
3587.9126	99.1171
3588.8770	99.091
3589.8413	99.0792
3590.8054	99.0811
3591.7695	99.0908
3592.7339	99.1015
3593.6982	99.1086
3594.6624	99.1129
3595.6265	99.1187
3596.5908	99.13
3597.5552	99.146
3598.5193	99.1611
3599.4834	99.1687
3600.4478	99.1657
3601.4121	99.1541
3602.3762	99.1395
3603.3403	99.1261
3604.3047	99.1145
3605.2690	99.1019
3606.2332	99.0842
3607.1973	99.0599
3608.1616	99.0326
3609.1260	99.0103
3610.0901	99.0017
3611.0542	99.0118
3612.0186	99.0399
3612.9829	99.0787
3613.9470	99.1165
3614.9111	99.1412
3615.8755	99.144
3616.8398	99.1235
3617.8040	99.0881
3618.7681	99.0547
3619.7324	99.0398
3620.6968	99.047
3621.6609	99.0648
3622.6250	99.0747
3623.5894	99.0617
3624.5537	99.0178
3625.5178	98.9454
3626.4819	98.8627
3627.4463	98.8065
3628.4106	98.8147
3629.3748	98.8887
3630.3389	98.9871
3631.3032	99.0653
3632.2676	99.1036
3633.2317	99.1055
3634.1958	99.086
3635.1602	99.0633
3636.1245	99.0514
3637.0886	99.0546
3638.0527	99.0672
3639.0171	99.0793
3639.9814	99.083
3640.9456	99.0766
3641.9097	99.0642
3642.8740	99.0511
3643.8384	99.0394
3644.8025	99.0249
3645.7666	98.9977
3646.7310	98.9477
3647.6953	98.8769
3648.6594	98.812
3649.6235	98.7892
3650.5879	98.8181
3651.5522	98.8796
3652.5164	98.9501
3653.4805	99.0146
3654.4448	99.0658
3655.4092	99.1016
3656.3733	99.1233
3657.3374	99.1337
3658.3018	99.1349
3659.2661	99.127
3660.2302	99.1099
3661.1943	99.0858
3662.1587	99.0605
3663.1230	99.041
3664.0872	99.0317
3665.0513	99.0308
3666.0156	99.0318
3666.9800	99.0264
3667.9441	99.0091
3668.9082	98.9824
3669.8726	98.9553
3670.8369	98.9355
3671.8010	98.922
3672.7651	98.9077
3673.7295	98.8862
3674.6938	98.8586
3675.6580	98.8354
3676.6221	98.8284
3677.5864	98.8398
3678.5508	98.8627
3679.5149	98.8884
3680.4790	98.9109
3681.4434	98.9266
3682.4077	98.9341
3683.3718	98.9334
3684.3359	98.9255
3685.3003	98.9126
3686.2646	98.899
3687.2288	98.891
3688.1929	98.8961
3689.1572	98.916
3690.1216	98.9428
3691.0857	98.9642
3692.0498	98.9738
3693.0142	98.9728
3693.9785	98.9678
3694.9426	98.9658
3695.9067	98.9709
3696.8711	98.9814
3697.8354	98.99
3698.7996	98.9868
3699.7637	98.9655
3700.7280	98.9287
3701.6924	98.8886
3702.6565	98.8597
3703.6206	98.8485
3704.5850	98.8507
3705.5493	98.8556
3706.5134	98.8533
3707.4775	98.8384
3708.4419	98.8135
3709.4063	98.7904
3710.3704	98.7856
3711.3345	98.8087
3712.2988	98.8524
3713.2632	98.8998
3714.2273	98.9383
3715.1914	98.9641
3716.1558	98.9792
3717.1201	98.987
3718.0842	98.9903
3719.0483	98.9898
3720.0127	98.9851
3720.9771	98.977
3721.9412	98.9683
3722.9053	98.9633
3723.8696	98.9645
3724.8340	98.9701
3725.7981	98.9739
3726.7622	98.9696
3727.7266	98.9548
3728.6909	98.932
3729.6550	98.9063
3730.6191	98.883
3731.5835	98.8658
3732.5479	98.8555
3733.5120	98.8504
3734.4761	98.8487
3735.4404	98.8506
3736.4048	98.8568
3737.3689	98.8656
3738.3330	98.8726
3739.2974	98.8732
3740.2617	98.8644
3741.2258	98.846
3742.1899	98.8229
3743.1543	98.8051
3744.1187	98.8015
3745.0828	98.8097
3746.0469	98.816
3747.0112	98.8079
3747.9756	98.7818
3748.9397	98.7452
3749.9038	98.7147
3750.8682	98.7064
3751.8325	98.7203
3752.7966	98.741
3753.7607	98.7545
3754.7251	98.7581
3755.6895	98.7588
3756.6536	98.7674
3757.6177	98.7937
3758.5820	98.8385
3759.5464	98.8909
3760.5105	98.9332
3761.4746	98.9511
3762.4390	98.9388
3763.4033	98.8993
3764.3674	98.8439
3765.3315	98.7899
3766.2959	98.7553
3767.2603	98.7502
3768.2244	98.7719
3769.1885	98.8064
3770.1528	98.839
3771.1172	98.8638
3772.0813	98.8852
3773.0454	98.9113
3774.0098	98.9449
3774.9741	98.9812
3775.9382	99.0089
3776.9023	99.0158
3777.8667	98.9968
3778.8311	98.9595
3779.7952	98.92
3780.7593	98.8918
3781.7236	98.8772
3782.6880	98.8693
3783.6521	98.8585
3784.6162	98.8395
3785.5806	98.8139
3786.5449	98.7898
3787.5090	98.7767
3788.4731	98.7805
3789.4375	98.8008
3790.4019	98.8307
3791.3660	98.8602
3792.3301	98.8795
3793.2944	98.8829
3794.2588	98.8711
3795.2229	98.8505
3796.1870	98.8286
3797.1514	98.8093
3798.1157	98.7912
3799.0798	98.7709
3800.0439	98.7493
3801.0083	98.7333
3801.9727	98.7307
3802.9368	98.7415
3803.9009	98.7568
3804.8652	98.7662
3805.8296	98.7643
3806.7937	98.7553
3807.7578	98.7501
3808.7222	98.7577
3809.6865	98.7786
3810.6506	98.8058
3811.6147	98.8301
3812.5791	98.8438
3813.5435	98.842
3814.5076	98.825
3815.4717	98.7999
3816.4360	98.7774
3817.4004	98.767
3818.3645	98.7744
3819.3286	98.8008
3820.2930	98.8401
3821.2573	98.8775
3822.2214	98.8952
3823.1855	98.8837
3824.1499	98.8455
3825.1143	98.7915
3826.0784	98.7365
3827.0425	98.6956
3828.0068	98.6803
3828.9712	98.6945
3829.9353	98.7333
3830.8994	98.7852
3831.8638	98.8362
3832.8281	98.8729
3833.7922	98.8848
3834.7563	98.8666
3835.7207	98.8203
3836.6851	98.7576
3837.6492	98.6993
3838.6133	98.6659
3839.5776	98.6656
3840.5420	98.6909
3841.5061	98.7265
3842.4702	98.7589
3843.4346	98.7811
3844.3989	98.793
3845.3630	98.7985
3846.3271	98.8017
3847.2915	98.8034
3848.2559	98.8003
3849.2200	98.7854
3850.1841	98.7495
3851.1484	98.6884
3852.1128	98.6157
3853.0769	98.5698
3854.0410	98.5813
3855.0054	98.6377
3855.9697	98.7041
3856.9338	98.7557
3857.8979	98.7833
3858.8623	98.7868
3859.8267	98.7712
3860.7908	98.7455
3861.7549	98.7204
3862.7192	98.7057
3863.6836	98.7039
3864.6477	98.7104
3865.6118	98.7168
3866.5762	98.7174
3867.5405	98.7121
3868.5046	98.706
3869.4688	98.7072
3870.4331	98.7214
3871.3975	98.7468
3872.3616	98.7738
3873.3257	98.791
3874.2900	98.7915
3875.2544	98.7754
3876.2185	98.7484
3877.1826	98.7199
3878.1470	98.6992
3879.1113	98.6926
3880.0754	98.6997
3881.0396	98.7133
3882.0039	98.7238
3882.9683	98.7259
3883.9324	98.7213
3884.8965	98.716
3885.8608	98.7151
3886.8252	98.7183
3887.7893	98.721
3888.7534	98.7188
3889.7178	98.7117
3890.6821	98.7054
3891.6462	98.7078
3892.6104	98.7219
3893.5747	98.7425
3894.5391	98.7602
3895.5032	98.7676
3896.4673	98.7618
3897.4316	98.7447
3898.3960	98.7214
3899.3601	98.6968
3900.3242	98.6733
3901.2886	98.6512
3902.2529	98.6334
3903.2170	98.6276
3904.1812	98.6413
3905.1455	98.6741
3906.1099	98.7162
3907.0740	98.7537
3908.0381	98.7762
3909.0024	98.7807
3909.9668	98.7722
3910.9309	98.7612
3911.8950	98.7574
3912.8594	98.7649
3913.8237	98.7803
3914.7878	98.7949
3915.7520	98.8002
3916.7163	98.7935
3917.6807	98.7799
3918.6448	98.7686
3919.6089	98.7666
3920.5732	98.7746
3921.5376	98.7878
3922.5017	98.7989
3923.4658	98.8016
3924.4302	98.7937
3925.3945	98.7779
3926.3586	98.76
3927.3228	98.7456
3928.2871	98.738
3929.2515	98.7373
3930.2156	98.742
3931.1797	98.75
3932.1440	98.7603
3933.1084	98.7721
3934.0725	98.7842
3935.0366	98.7936
3936.0010	98.7965
3936.9653	98.7897
3937.9294	98.7733
3938.8936	98.7507
3939.8579	98.7282
3940.8223	98.712
3941.7864	98.7055
3942.7505	98.7087
3943.7148	98.7196
3944.6792	98.7356
3945.6433	98.7547
3946.6074	98.7737
3947.5718	98.7877
3948.5361	98.7919
3949.5002	98.7844
3950.4644	98.7687
3951.4287	98.752
3952.3931	98.7406
3953.3572	98.7358
3954.3213	98.7335
3955.2856	98.7281
3956.2500	98.7172
3957.2141	98.7044
3958.1782	98.6981
3959.1426	98.706
3960.1069	98.7296
3961.0710	98.762
3962.0352	98.7906
3962.9995	98.804
3963.9639	98.7981
3964.9280	98.7772
3965.8921	98.7517
3966.8564	98.7321
3967.8208	98.7243
3968.7849	98.7275
3969.7490	98.7358
3970.7134	98.7419
3971.6777	98.7412
3972.6418	98.7333
3973.6060	98.7208
3974.5703	98.7065
3975.5347	98.6927
3976.4988	98.6811
3977.4629	98.6738
3978.4272	98.6737
3979.3916	98.683
3980.3557	98.7
3981.3198	98.7185
3982.2842	98.7298
3983.2485	98.7277
3984.2126	98.7126
3985.1768	98.6925
3986.1411	98.6788
3987.1055	98.6804
3988.0696	98.6982
3989.0337	98.7254
3989.9980	98.7504
3990.9624	98.7635
3991.9265	98.7616
3992.8906	98.7483
3993.8550	98.732
3994.8193	98.7215
3995.7834	98.7222
3996.7476	98.7354
3997.7119	98.7587
3998.6763	98.7876
3999.6404	98.8166
4000.6045	98.8402
4001.5688	98.8533
4002.5332	98.8522
4003.4973	98.8359
4004.4614	98.8066
4005.4258	98.7699
4006.3901	98.7333
4007.3542	98.7036
4008.3184	98.685
4009.2827	98.6779
4010.2471	98.6802
4011.2112	98.689
4012.1753	98.7023
4013.1396	98.7193
4014.1040	98.7386
4015.0681	98.7576
4016.0322	98.7722
4016.9966	98.7785
4017.9609	98.7751
4018.9250	98.7635
4019.8892	98.7478
4020.8535	98.7331
4021.8179	98.723
4022.7820	98.7192
4023.7461	98.7211
4024.7104	98.7262
4025.6748	98.7303
4026.6389	98.729
4027.6030	98.7193
4028.5674	98.7019
4029.5317	98.6823
4030.4958	98.6695
4031.4600	98.6715
4032.4243	98.6914
4033.3887	98.7245
4034.3528	98.7601
4035.3169	98.7868
4036.2813	98.7973
4037.2456	98.7914
4038.2097	98.7747
4039.1738	98.7541
4040.1382	98.7344
4041.1025	98.717
4042.0667	98.7016
4043.0308	98.6883
4043.9951	98.679
4044.9595	98.6759
4045.9236	98.6788
4046.8877	98.6848
4047.8521	98.6887
4048.8164	98.6861
4049.7808	98.676
4050.7446	98.661
4051.7090	98.6461
4052.6733	98.6357
4053.6377	98.6326
4054.6016	98.6373
4055.5659	98.6492
4056.5303	98.6674
4057.4946	98.6899
4058.4585	98.7126
4059.4229	98.7295
4060.3872	98.7337
4061.3516	98.7207
4062.3154	98.6918
4063.2798	98.6541
4064.2441	98.6185
4065.2085	98.596
4066.1724	98.593
4067.1367	98.6098
4068.1011	98.6407
4069.0654	98.6768
4070.0293	98.7083
4070.9937	98.7274
4071.9580	98.7308
4072.9224	98.72
4073.8862	98.7009
4074.8506	98.6812
4075.8149	98.6673
4076.7793	98.6622
4077.7432	98.6646
4078.7075	98.6715
4079.6719	98.6803
4080.6362	98.6899
4081.6001	98.6998
4082.5645	98.7088
4083.5288	98.715
4084.4932	98.7167
4085.4570	98.7145
4086.4214	98.7111
4087.3857	98.7093
4088.3501	98.7094
4089.3140	98.7086
4090.2783	98.704
4091.2427	98.696
4092.2070	98.6894
4093.1709	98.6907
4094.1353	98.7025
4095.0996	98.7206
4096.0640	98.7351
4097.0278	98.7358
4097.9922	98.7185
4098.9565	98.6881
4099.9209	98.6561
4100.8848	98.6339
4101.8491	98.6272
4102.8135	98.6338
4103.7778	98.6453
4104.7417	98.6521
4105.7061	98.6492
4106.6704	98.6383
4107.6348	98.6274
4108.5986	98.6254
4109.5630	98.6377
4110.5273	98.662
4111.4917	98.6896
4112.4556	98.7096
4113.4199	98.7144
4114.3843	98.7033
4115.3486	98.6822
4116.3125	98.66
4117.2769	98.6437
4118.2412	98.6362
4119.2056	98.6364
4120.1694	98.641
4121.1338	98.6474
4122.0981	98.6542
4123.0625	98.6612
4124.0264	98.6684
4124.9907	98.6745
4125.9551	98.6773
4126.9194	98.6747
4127.8833	98.6664
4128.8477	98.6549
4129.8120	98.6455
4130.7764	98.6431
4131.7402	98.6492
4132.7046	98.6598
4133.6689	98.667
4134.6333	98.6636
4135.5972	98.6483
4136.5615	98.627
4137.5259	98.6097
4138.4902	98.6042
4139.4541	98.6114
4140.4185	98.6251
4141.3828	98.6361
4142.3472	98.6392
4143.3110	98.6355
4144.2754	98.6319
4145.2397	98.635
4146.2041	98.6467
4147.1680	98.6619
4148.1323	98.6714
4149.0967	98.6668
4150.0610	98.646
4151.0249	98.6144
4151.9893	98.5827
4152.9536	98.5616
4153.9180	98.557
4154.8818	98.5665
4155.8462	98.5814
4156.8105	98.5907
4157.7749	98.5873
4158.7388	98.5715
4159.7031	98.5513
4160.6675	98.538
4161.6318	98.5405
4162.5957	98.5595
4163.5601	98.5869
4164.5244	98.6089
4165.4888	98.6133
4166.4526	98.5962
4167.4170	98.5652
4168.3813	98.5368
4169.3457	98.5279
4170.3096	98.5478
4171.2739	98.5927
4172.2383	98.6472
4173.2026	98.6925
4174.1665	98.7147
4175.1309	98.7104
4176.0952	98.6865
4177.0596	98.654
4178.0234	98.6223
4178.9878	98.5955
4179.9521	98.5737
4180.9165	98.557
4181.8804	98.5469
4182.8447	98.5465
4183.8091	98.5567
4184.7734	98.5739
4185.7373	98.5903
4186.7017	98.5982
4187.6660	98.594
4188.6304	98.5804
4189.5942	98.5642
4190.5586	98.5518
4191.5229	98.5459
4192.4873	98.546
4193.4512	98.5513
4194.4155	98.5632
4195.3799	98.5845
4196.3442	98.6161
4197.3081	98.6529
4198.2725	98.6839
4199.2368	98.6977
4200.2012	98.6882
4201.1650	98.6592
4202.1294	98.6218
4203.0938	98.5889
4204.0581	98.5695
4205.0220	98.5657
4205.9863	98.5745
4206.9507	98.5905
4207.9150	98.6085
4208.8789	98.624
4209.8433	98.6332
4210.8076	98.6338
4211.7720	98.6262
4212.7358	98.6133
4213.7002	98.5996
4214.6646	98.5886
4215.6289	98.5812
4216.5928	98.5766
4217.5571	98.5735
4218.5215	98.5723
4219.4858	98.5743
4220.4497	98.581
4221.4141	98.5926
4222.3784	98.6074
4223.3428	98.623
4224.3066	98.6367
4225.2710	98.6458
4226.2354	98.6475
4227.1997	98.6392
4228.1636	98.6193
4229.1279	98.5889
4230.0923	98.5523
4231.0566	98.5168
4232.0205	98.4912
4232.9849	98.4829
4233.9492	98.4952
4234.9136	98.5256
4235.8774	98.5651
4236.8418	98.6006
4237.8062	98.62
4238.7705	98.6167
4239.7344	98.5936
4240.6987	98.5612
4241.6631	98.5333
4242.6274	98.5208
4243.5913	98.5275
4244.5557	98.5501
4245.5200	98.5812
4246.4844	98.6119
4247.4482	98.6348
4248.4126	98.6451
4249.3770	98.6418
4250.3413	98.6281
4251.3052	98.6116
4252.2695	98.6013
4253.2339	98.603
4254.1982	98.6157
4255.1621	98.6313
4256.1265	98.639
4257.0908	98.6312
4258.0552	98.6079
4259.0190	98.5758
4259.9834	98.5435
4260.9478	98.5171
4261.9121	98.499
4262.8760	98.4893
4263.8403	98.4899
4264.8047	98.5041
4265.7690	98.5341
4266.7329	98.5767
4267.6973	98.6218
4268.6616	98.6563
4269.6260	98.6702
4270.5898	98.6618
4271.5542	98.6387
4272.5186	98.6133
4273.4829	98.5957
4274.4468	98.589
4275.4111	98.5884
4276.3755	98.5851
4277.3398	98.5724
4278.3037	98.5501
4279.2681	98.5258
4280.2324	98.5105
4281.1968	98.5138
4282.1606	98.538
4283.1250	98.5775
4284.0894	98.6209
4285.0537	98.657
4286.0176	98.6784
4286.9819	98.6832
4287.9463	98.673
4288.9106	98.6503
4289.8745	98.6172
4290.8389	98.5768
4291.8032	98.5351
4292.7676	98.5008
4293.7314	98.4831
4294.6958	98.4875
4295.6602	98.5128
4296.6245	98.5511
4297.5884	98.5902
4298.5527	98.6184
4299.5171	98.6273
4300.4814	98.6139
4301.4453	98.5811
4302.4097	98.5367
4303.3740	98.4916
4304.3384	98.4572
4305.3022	98.4416
4306.2666	98.4466
4307.2310	98.4669
4308.1953	98.4934
4309.1592	98.5177
4310.1235	98.5368
4311.0879	98.553
4312.0522	98.5712
4313.0161	98.5933
4313.9805	98.6155
4314.9448	98.629
4315.9092	98.6253
4316.8730	98.6016
4317.8374	98.5633
4318.8018	98.5221
4319.7661	98.4908
4320.7300	98.4776
4321.6943	98.483
4322.6587	98.5006
4323.6230	98.5206
4324.5869	98.5335
4325.5513	98.534
4326.5156	98.5228
4327.4800	98.5052
4328.4438	98.4894
4329.4082	98.4827
4330.3726	98.4876
4331.3369	98.5011
4332.3008	98.5159
4333.2651	98.524
4334.2295	98.5217
4335.1938	98.5118
4336.1577	98.5021
4337.1221	98.5014
4338.0864	98.5145
4339.0508	98.5383
4340.0146	98.5639
4340.9790	98.5802
4341.9434	98.5806
4342.9077	98.5664
4343.8716	98.5466
4344.8359	98.5327
4345.8003	98.5324
4346.7646	98.5446
4347.7285	98.5604
4348.6929	98.5677
4349.6572	98.5591
4350.6216	98.536
4351.5854	98.5077
4352.5498	98.4859
4353.5142	98.4778
4354.4785	98.4829
4355.4424	98.494
4356.4067	98.5032
4357.3711	98.5064
4358.3354	98.5049
4359.2993	98.5028
4360.2637	98.5026
4361.2280	98.5025
4362.1924	98.4975
4363.1563	98.4828
4364.1206	98.4582
4365.0850	98.4296
4366.0493	98.4064
4367.0132	98.3978
4367.9775	98.4077
4368.9419	98.433
4369.9063	98.4645
4370.8701	98.4907
4371.8345	98.5023
4372.7988	98.4959
4373.7632	98.4754
4374.7271	98.4509
4375.6914	98.4337
4376.6558	98.4321
4377.6201	98.4471
4378.5840	98.4734
4379.5483	98.5023
4380.5127	98.5272
4381.4771	98.5462
4382.4409	98.5617
4383.4053	98.5769
4384.3696	98.5922
4385.3340	98.6051
4386.2979	98.6123
4387.2622	98.6126
4388.2266	98.6078
4389.1909	98.6007
4390.1548	98.5917
4391.1191	98.5783
4392.0835	98.5565
4393.0479	98.5258
4394.0117	98.4918
4394.9761	98.4647
4395.9404	98.4547
4396.9048	98.4658
4397.8687	98.4932
4398.8330	98.5251
4399.7974	98.5484
4400.7617	98.5551
4401.7256	98.5458
4402.6899	98.5283
4403.6543	98.5132
4404.6187	98.5085
4405.5825	98.5164
4406.5469	98.5337
4407.5112	98.5547
4408.4756	98.5739
4409.4395	98.5873
4410.4038	98.5928
4411.3682	98.5887
4412.3325	98.5745
4413.2964	98.5514
4414.2607	98.5233
4415.2251	98.4959
4416.1895	98.4748
4417.1533	98.4634
4418.1177	98.462
4419.0820	98.4693
4420.0464	98.4833
4421.0103	98.5023
4421.9746	98.5241
4422.9390	98.545
4423.9033	98.5598
4424.8672	98.5637
4425.8315	98.5554
4426.7959	98.5387
4427.7603	98.5221
4428.7241	98.5144
4429.6885	98.5207
4430.6528	98.5391
4431.6172	98.561
4432.5811	98.5756
4433.5454	98.5755
4434.5098	98.5607
4435.4741	98.5389
4436.4380	98.521
4437.4023	98.5157
4438.3667	98.5247
4439.3311	98.5431
4440.2949	98.5624
4441.2593	98.5748
4442.2236	98.5765
4443.1880	98.5684
4444.1519	98.5547
4445.1162	98.5408
4446.0806	98.5311
4447.0449	98.5278
4448.0088	98.5297
4448.9731	98.5334
4449.9375	98.5356
4450.9019	98.5359
4451.8657	98.5375
4452.8301	98.5452
4453.7944	98.5622
4454.7588	98.586
4455.7227	98.609
4456.6870	98.6219
4457.6514	98.6187
4458.6157	98.6002
4459.5796	98.5734
4460.5439	98.5478
4461.5083	98.5303
4462.4727	98.5233
4463.4365	98.5251
4464.4009	98.532
4465.3652	98.5415
4466.3296	98.553
4467.2935	98.567
4468.2578	98.5824
4469.2222	98.5967
4470.1865	98.6062
4471.1504	98.6093
4472.1147	98.6087
4473.0791	98.6107
4474.0435	98.6217
4475.0073	98.6424
4475.9717	98.6665
4476.9360	98.6827
4477.9004	98.6822
4478.8643	98.6638
4479.8286	98.6349
4480.7930	98.6064
4481.7573	98.5859
4482.7212	98.5738
4483.6855	98.5658
4484.6499	98.5578
4485.6143	98.5499
4486.5781	98.5456
4487.5425	98.5481
4488.5068	98.5565
4489.4712	98.5668
4490.4351	98.5746
4491.3994	98.5793
4492.3638	98.5839
4493.3281	98.5911
4494.2920	98.5998
4495.2563	98.6047
4496.2207	98.5998
4497.1851	98.584
4498.1489	98.563
4499.1133	98.547
4500.0776	98.5439
4501.0420	98.5544
4502.0059	98.571
4502.9702	98.582
4503.9346	98.5794
4504.8989	98.5635
4505.8628	98.5428
4506.8271	98.5283
4507.7915	98.5262
4508.7559	98.5339
4509.7197	98.5419
4510.6841	98.5403
4511.6484	98.5257
4512.6128	98.5039
4513.5767	98.4867
4514.5410	98.485
4515.5054	98.5021
4516.4697	98.5321
4517.4336	98.5633
4518.3979	98.584
4519.3623	98.5887
4520.3267	98.5796
4521.2905	98.5641
4522.2549	98.5499
4523.2192	98.5416
4524.1836	98.5382
4525.1475	98.5357
4526.1118	98.5304
4527.0762	98.5224
4528.0405	98.5161
4529.0044	98.5179
4529.9688	98.532
4530.9331	98.5576
4531.8975	98.5877
4532.8613	98.6128
4533.8257	98.6246
4534.7900	98.62
4535.7544	98.6016
4536.7183	98.5757
4537.6826	98.5491
4538.6470	98.5271
4539.6113	98.5132
4540.5752	98.5097
4541.5396	98.5177
4542.5039	98.5362
4543.4683	98.5608
4544.4321	98.5838
4545.3965	98.5973
4546.3608	98.5964
4547.3252	98.5826
4548.2891	98.5626
4549.2534	98.5438
4550.2178	98.5301
4551.1821	98.5196
4552.1460	98.507
4553.1104	98.4883
4554.0747	98.4653
4555.0391	98.4447
4556.0029	98.4339
4556.9673	98.436
4557.9316	98.4477
4558.8960	98.4619
4559.8599	98.4731
4560.8242	98.4806
4561.7886	98.4884
4562.7529	98.5011
4563.7168	98.5193
4564.6812	98.5394
4565.6455	98.5557
4566.6099	98.5654
4567.5737	98.5697
4568.5381	98.5727
4569.5024	98.5766
4570.4668	98.5791
4571.4307	98.5744
4572.3950	98.558
4573.3594	98.531
4574.3237	98.5016
4575.2876	98.4811
4576.2520	98.4782
4577.2163	98.4939
4578.1807	98.5218
4579.1445	98.5521
4580.1089	98.5762
4581.0732	98.59
4582.0376	98.5933
4583.0015	98.5883
4583.9658	98.5786
4584.9302	98.5686
4585.8945	98.5636
4586.8584	98.5674
4587.8228	98.5791
4588.7871	98.5925
4589.7515	98.5975
4590.7153	98.5869
4591.6797	98.5607
4592.6440	98.5281
4593.6084	98.502
4594.5723	98.4917
4595.5366	98.4973
4596.5010	98.5104
4597.4653	98.5196
4598.4292	98.5183
4599.3936	98.5075
4600.3579	98.4945
4601.3223	98.4871
4602.2861	98.4889
4603.2505	98.4982
4604.2148	98.5103
4605.1792	98.5211
4606.1431	98.5287
4607.1074	98.5323
4608.0718	98.5304
4609.0361	98.5206
4610.0000	98.5015
4610.9644	98.4763
4611.9287	98.4538
4612.8931	98.4456
4613.8569	98.4602
4614.8213	98.4973
4615.7856	98.5463
4616.7500	98.5906
4617.7139	98.6157
4618.6782	98.6158
4619.6426	98.5959
4620.6069	98.5681
4621.5708	98.5447
4622.5352	98.5327
4623.4995	98.5319
4624.4639	98.5374
4625.4277	98.5433
4626.3921	98.5455
4627.3564	98.5424
4628.3208	98.5346
4629.2847	98.5236
4630.2490	98.5126
4631.2134	98.5064
4632.1777	98.5097
4633.1416	98.5249
4634.1060	98.5493
4635.0703	98.5752
4636.0347	98.5931
4636.9985	98.5969
4637.9629	98.588
4638.9272	98.5741
4639.8916	98.5638
4640.8555	98.5604
4641.8198	98.5606
4642.7842	98.5574
4643.7485	98.5473
4644.7124	98.5341
4645.6768	98.527
4646.6411	98.5342
4647.6055	98.5566
4648.5693	98.5867
4649.5337	98.6137
4650.4980	98.6289
4651.4624	98.6295
4652.4263	98.6164
4653.3906	98.5921
4654.3550	98.5587
4655.3193	98.5204
4656.2832	98.4852
4657.2476	98.4638
4658.2119	98.4645
4659.1763	98.4872
4660.1401	98.5217
4661.1045	98.5524
4662.0688	98.5672
4663.0332	98.5632
4663.9971	98.5472
4664.9614	98.5302
4665.9258	98.5205
4666.8901	98.5202
4667.8540	98.5261
4668.8184	98.5332
4669.7827	98.5374
4670.7471	98.5369
4671.7109	98.531
4672.6753	98.5203
4673.6396	98.5061
4674.6040	98.4914
4675.5679	98.4799
4676.5322	98.4758
4677.4966	98.4815
4678.4609	98.4975
4679.4248	98.5215
4680.3892	98.549
4681.3535	98.5742
4682.3179	98.5914
4683.2817	98.5972
4684.2461	98.5914
4685.2104	98.5771
4686.1748	98.5585
4687.1387	98.5386
4688.1030	98.5185
4689.0674	98.4986
4690.0317	98.4802
4690.9956	98.4669
4691.9600	98.4622
4692.9243	98.4672
4693.8887	98.4782
4694.8525	98.489
4695.8169	98.4946
4696.7813	98.4945
4697.7456	98.493
4698.7095	98.4957
4699.6738	98.5054
4700.6382	98.5202
4701.6025	98.5346
4702.5664	98.5436
4703.5308	98.5448
4704.4951	98.54
4705.4595	98.5328
4706.4233	98.5268
4707.3877	98.5245
4708.3521	98.5269
4709.3164	98.5337
4710.2803	98.5438
4711.2446	98.5554
4712.2090	98.5664
4713.1733	98.5755
4714.1372	98.5818
4715.1016	98.5851
4716.0659	98.585
4717.0303	98.5806
4717.9941	98.5711
4718.9585	98.5576
4719.9229	98.5436
4720.8872	98.5347
4721.8511	98.5365
4722.8154	98.5516
4723.7798	98.5781
4724.7441	98.6091
4725.7080	98.635
4726.6724	98.6467
4727.6367	98.6394
4728.6011	98.6144
4729.5649	98.579
4730.5293	98.5438
4731.4937	98.5191
4732.4580	98.5109
4733.4219	98.5198
4734.3862	98.5403
4735.3506	98.5632
4736.3149	98.5788
4737.2788	98.5804
4738.2432	98.5671
4739.2075	98.5447
4740.1719	98.5233
4741.1357	98.5128
4742.1001	98.5171
4743.0645	98.5326
4744.0288	98.5501
4744.9927	98.5606
4745.9570	98.5605
4746.9214	98.5536
4747.8857	98.5475
4748.8496	98.5483
4749.8140	98.5566
4750.7783	98.5679
4751.7427	98.5769
4752.7065	98.5821
4753.6709	98.5868
4754.6353	98.596
4755.5996	98.6118
4756.5635	98.6302
4757.5278	98.642
4758.4922	98.6385
4759.4565	98.6168
4760.4204	98.5825
4761.3848	98.547
4762.3491	98.5216
4763.3135	98.5109
4764.2773	98.5118
4765.2417	98.5164
4766.2061	98.5181
4767.1704	98.5169
4768.1343	98.5179
4769.0986	98.5274
4770.0630	98.5462
4771.0273	98.5682
4771.9912	98.5836
4772.9556	98.5851
4773.9199	98.5726
4774.8843	98.5536
4775.8481	98.5378
4776.8125	98.5314
4777.7769	98.5338
4778.7412	98.539
4779.7051	98.5404
4780.6694	98.535
4781.6338	98.525
4782.5981	98.5162
4783.5620	98.5132
4784.5264	98.5169
4785.4907	98.5229
4786.4551	98.5245
4787.4189	98.5164
4788.3833	98.4986
4789.3477	98.4768
4790.3120	98.4592
4791.2759	98.4525
4792.2402	98.4582
4793.2046	98.4734
4794.1689	98.4938
4795.1328	98.5175
4796.0972	98.5442
4797.0615	98.5724
4798.0259	98.5962
4798.9897	98.6048
4799.9541	98.5893
4800.9185	98.5496
4801.8828	98.4982
4802.8467	98.4557
4803.8110	98.4402
4804.7754	98.4564
4805.7397	98.4939
4806.7036	98.5332
4807.6680	98.5583
4808.6323	98.5657
4809.5967	98.565
4810.5605	98.5694
4811.5249	98.5854
4812.4893	98.6071
4813.4536	98.6203
4814.4175	98.6121
4815.3818	98.5808
4816.3462	98.5371
4817.3105	98.4978
4818.2744	98.475
4819.2388	98.4695
4820.2031	98.472
4821.1675	98.4707
4822.1313	98.4599
4823.0957	98.4434
4824.0601	98.4308
4825.0244	98.43
4825.9883	98.4423
4826.9526	98.4621
4827.9170	98.4816
4828.8813	98.4958
4829.8452	98.5036
4830.8096	98.5061
4831.7739	98.5038
4832.7383	98.496
4833.7021	98.4831
4834.6665	98.4694
4835.6309	98.4622
4836.5952	98.4688
4837.5591	98.4919
4838.5234	98.5271
4839.4878	98.5649
4840.4521	98.5948
4841.4160	98.61
4842.3804	98.6092
4843.3447	98.596
4844.3091	98.5766
4845.2729	98.5569
4846.2373	98.5406
4847.2017	98.5286
4848.1660	98.5198
4849.1299	98.5125
4850.0942	98.5075
4851.0586	98.5083
4852.0229	98.5194
4852.9868	98.5423
4853.9512	98.5719
4854.9155	98.5964
4855.8799	98.6021
4856.8438	98.581
4857.8081	98.5365
4858.7725	98.4836
4859.7368	98.4422
4860.7007	98.4275
4861.6650	98.4424
4862.6294	98.4774
4863.5938	98.5168
4864.5576	98.5476
4865.5220	98.5661
4866.4863	98.5772
4867.4507	98.5888
4868.4146	98.6045
4869.3789	98.6204
4870.3433	98.6276
4871.3076	98.619
4872.2715	98.5947
4873.2358	98.5631
4874.2002	98.5358
4875.1646	98.5208
4876.1284	98.5187
4877.0928	98.5232
4878.0571	98.5259
4879.0215	98.5212
4879.9854	98.5086
4880.9497	98.4916
4881.9141	98.4753
4882.8784	98.4642
4883.8423	98.4614
4884.8066	98.4679
4885.7710	98.4825
4886.7354	98.5013
4887.6992	98.519
4888.6636	98.5314
4889.6279	98.5368
4890.5923	98.5376
4891.5562	98.5372
4892.5205	98.538
4893.4849	98.5391
4894.4492	98.5383
4895.4131	98.534
4896.3774	98.5279
4897.3418	98.523
4898.3062	98.5205
4899.2700	98.5186
4900.2344	98.513
4901.1987	98.5024
4902.1631	98.4919
4903.1270	98.4909
4904.0913	98.5076
4905.0557	98.5405
4906.0200	98.5764
4906.9839	98.5969
4907.9482	98.5895
4908.9126	98.5561
4909.8770	98.5128
4910.8408	98.4801
4911.8052	98.4705
4912.7695	98.4817
4913.7339	98.5004
4914.6978	98.5126
4915.6621	98.5126
4916.6265	98.5052
4917.5908	98.4998
4918.5547	98.5027
4919.5190	98.5131
4920.4834	98.5256
4921.4478	98.5359
4922.4116	98.5439
4923.3760	98.5521
4924.3403	98.5616
4925.3047	98.5693
4926.2686	98.5696
4927.2329	98.5591
4928.1973	98.5397
4929.1616	98.5187
4930.1255	98.5044
4931.0898	98.5014
4932.0542	98.5084
4933.0186	98.5209
4933.9824	98.534
4934.9468	98.5455
4935.9111	98.5558
4936.8755	98.5665
4937.8394	98.5782
4938.8037	98.5901
4939.7681	98.6008
4940.7324	98.609
4941.6963	98.6133
4942.6606	98.6127
4943.6250	98.6066
4944.5894	98.5957
4945.5532	98.5827
4946.5176	98.5717
4947.4819	98.566
4948.4463	98.5667
4949.4102	98.5716
4950.3745	98.5755
4951.3389	98.5732
4952.3032	98.5611
4953.2671	98.5381
4954.2314	98.5068
4955.1958	98.4722
4956.1602	98.4422
4957.1240	98.4254
4958.0884	98.4295
4959.0527	98.4574
4960.0171	98.5052
4960.9810	98.5624
4961.9453	98.6153
4962.9097	98.6519
4963.8740	98.6665
4964.8379	98.66
4965.8022	98.6381
4966.7666	98.6073
4967.7310	98.5732
4968.6948	98.5399
4969.6592	98.5108
4970.6235	98.4898
4971.5879	98.48
4972.5518	98.4832
4973.5161	98.4985
4974.4805	98.5221
4975.4448	98.5482
4976.4087	98.5702
4977.3730	98.5817
4978.3374	98.5782
4979.3018	98.5584
4980.2656	98.5268
4981.2300	98.4928
4982.1943	98.4693
4983.1587	98.4669
4984.1226	98.4892
4985.0869	98.5294
4986.0513	98.5723
4987.0156	98.6006
4987.9795	98.6022
4988.9438	98.5769
4989.9082	98.5357
4990.8726	98.4956
4991.8364	98.4711
4992.8008	98.4674
4993.7651	98.4794
4994.7295	98.4961
4995.6934	98.5074
4996.6577	98.5097
4997.6221	98.5065
4998.5864	98.5035
4999.5503	98.5038
5000.5146	98.5048
5001.4790	98.5004
5002.4434	98.4862
5003.4072	98.4645
5004.3716	98.4445
5005.3359	98.438
5006.3003	98.453
5007.2642	98.4888
5008.2285	98.5362
5009.1929	98.5808
5010.1572	98.6096
5011.1211	98.6151
5012.0854	98.5973
5013.0498	98.5625
5014.0142	98.5202
5014.9780	98.48
5015.9424	98.4494
5016.9067	98.4326
5017.8711	98.4305
5018.8350	98.4421
5019.7993	98.4659
5020.7637	98.5004
5021.7280	98.5437
5022.6919	98.5915
5023.6563	98.6367
5024.6206	98.6694
5025.5850	98.681
5026.5488	98.668
5027.5132	98.6344
5028.4775	98.5904
5029.4419	98.5479
5030.4058	98.5155
5031.3701	98.496
5032.3345	98.4871
5033.2988	98.4845
5034.2627	98.4847
5035.2271	98.4862
5036.1914	98.4886
5037.1558	98.4913
5038.1196	98.4938
5039.0840	98.496
5040.0483	98.4987
5041.0127	98.5024
5041.9766	98.506
5042.9409	98.5058
5043.9053	98.4977
5044.8696	98.4808
5045.8335	98.4594
5046.7979	98.4422
5047.7622	98.4379
5048.7266	98.4495
5049.6904	98.472
5050.6548	98.4948
5051.6191	98.5076
5052.5835	98.5062
5053.5474	98.4958
5054.5117	98.4878
5055.4761	98.4939
5056.4404	98.52
5057.4043	98.5617
5058.3687	98.6058
5059.3330	98.6353
5060.2974	98.6371
5061.2612	98.6084
5062.2256	98.5585
5063.1899	98.5046
5064.1543	98.4639
5065.1182	98.4452
5066.0825	98.4462
5067.0469	98.4564
5068.0112	98.4647
5068.9751	98.4657
5069.9395	98.4619
5070.9038	98.4593
5071.8682	98.4622
5072.8320	98.4694
5073.7964	98.4755
5074.7607	98.4751
5075.7251	98.4682
5076.6890	98.4606
5077.6533	98.4608
5078.6177	98.4747
5079.5820	98.5009
5080.5459	98.5303
5081.5103	98.5494
5082.4746	98.5474
5083.4390	98.5217
5084.4028	98.4792
5085.3672	98.4331
5086.3315	98.3961
5087.2959	98.3755
5088.2598	98.3709
5089.2241	98.3785
5090.1885	98.395
5091.1528	98.42
5092.1167	98.4529
5093.0811	98.4895
5094.0454	98.5201
5095.0098	98.5339
5095.9736	98.5263
5096.9380	98.5029
5097.9023	98.4779
5098.8667	98.4657
5099.8306	98.472
5100.7949	98.4918
5101.7593	98.5142
5102.7236	98.5305
5103.6875	98.5401
5104.6519	98.5493
5105.6162	98.5648
5106.5806	98.5874
5107.5444	98.6104
5108.5088	98.6229
5109.4731	98.6163
5110.4375	98.5886
5111.4014	98.5462
5112.3657	98.5013
5113.3301	98.4676
5114.2944	98.4551
5115.2583	98.4659
5116.2227	98.4927
5117.1870	98.5209
5118.1514	98.5356
5119.1152	98.5288
5120.0796	98.5049
5121.0439	98.4782
5122.0083	98.4654
5122.9722	98.4762
5123.9365	98.5083
5124.9009	98.5498
5125.8652	98.5863
5126.8291	98.6085
5127.7935	98.6149
5128.7578	98.6086
5129.7222	98.5934
5130.6860	98.5711
5131.6504	98.543
5132.6147	98.5131
5133.5791	98.4886
5134.5430	98.4769
5135.5073	98.4809
5136.4717	98.4965
5137.4360	98.5152
5138.3999	98.5299
5139.3643	98.539
5140.3286	98.547
5141.2930	98.5602
5142.2568	98.5812
5143.2212	98.6069
5144.1855	98.6289
5145.1499	98.6387
5146.1138	98.631
5147.0781	98.6062
5148.0425	98.5711
5149.0068	98.5373
5149.9707	98.5173
5150.9351	98.5199
5151.8994	98.545
5152.8638	98.5819
5153.8276	98.6132
5154.7920	98.6227
5155.7563	98.6038
5156.7207	98.5631
5157.6846	98.5168
5158.6489	98.4814
5159.6133	98.4669
5160.5776	98.4733
5161.5415	98.4937
5162.5059	98.5184
5163.4702	98.5391
5164.4346	98.5508
5165.3984	98.5521
5166.3628	98.545
5167.3271	98.5337
5168.2915	98.5236
5169.2554	98.5191
5170.2197	98.5223
5171.1841	98.5328
5172.1484	98.5494
5173.1123	98.571
5174.0767	98.5969
5175.0410	98.6246
5176.0054	98.6488
5176.9692	98.6613
5177.9336	98.6553
5178.8979	98.6291
5179.8623	98.5884
5180.8262	98.5445
5181.7905	98.5094
5182.7549	98.4905
5183.7192	98.4878
5184.6831	98.4945
5185.6475	98.501
5186.6118	98.5006
5187.5762	98.4931
5188.5400	98.4842
5189.5044	98.4826
5190.4688	98.4935
5191.4331	98.5157
5192.3970	98.5404
5193.3613	98.5548
5194.3257	98.5477
5195.2900	98.5144
5196.2539	98.46
5197.2183	98.3977
5198.1826	98.3439
5199.1470	98.3121
5200.1108	98.3094
5201.0752	98.3362
5202.0396	98.3882
5203.0039	98.458
5203.9678	98.5352
5204.9321	98.6068
5205.8965	98.659
5206.8608	98.6817
5207.8247	98.672
5208.7891	98.6359
5209.7534	98.5844
5210.7178	98.5298
5211.6816	98.4825
5212.6460	98.4497
5213.6104	98.4347
5214.5747	98.4375
5215.5386	98.4551
5216.5029	98.4823
5217.4673	98.5137
5218.4316	98.5446
5219.3955	98.5719
5220.3599	98.5928
5221.3242	98.6041
5222.2886	98.6021
5223.2524	98.5851
5224.2168	98.5571
5225.1812	98.5292
5226.1455	98.5145
5227.1094	98.5187
5228.0737	98.5352
5229.0381	98.5464
5230.0024	98.5341
5230.9663	98.4916
5231.9307	98.4305
5232.8950	98.3756
5233.8594	98.3498
5234.8232	98.3607
5235.7876	98.3972
5236.7520	98.439
5237.7163	98.4696
5238.6802	98.4844
5239.6445	98.489
5240.6089	98.4901
5241.5732	98.4882
5242.5371	98.4775
5243.5015	98.4532
5244.4658	98.4184
5245.4302	98.386
5246.3940	98.3701
5247.3584	98.3766
5248.3228	98.3984
5249.2871	98.4214
5250.2510	98.4337
5251.2153	98.4319
5252.1797	98.4214
5253.1440	98.4129
5254.1079	98.4167
5255.0723	98.4378
5256.0366	98.4723
5257.0010	98.5083
5257.9648	98.5301
5258.9292	98.5239
5259.8936	98.4844
5260.8579	98.4204
5261.8218	98.3543
5262.7861	98.3128
5263.7505	98.3117
5264.7148	98.3462
5265.6787	98.3957
5266.6431	98.4369
5267.6074	98.4566
5268.5718	98.4556
5269.5356	98.4447
5270.5000	98.4366
5271.4644	98.4386
5272.4287	98.4507
5273.3926	98.4677
5274.3569	98.4837
5275.3213	98.4954
5276.2856	98.5023
5277.2495	98.5061
5278.2139	98.5087
5279.1782	98.5113
5280.1426	98.5138
5281.1064	98.516
5282.0708	98.5192
5283.0352	98.5261
5283.9995	98.5395
5284.9634	98.5592
5285.9277	98.581
5286.8921	98.5979
5287.8564	98.6041
5288.8203	98.5985
5289.7847	98.5849
5290.7490	98.5683
5291.7134	98.5502
5292.6772	98.5279
5293.6416	98.4986
5294.6060	98.4652
5295.5703	98.4375
5296.5342	98.4288
5297.4985	98.4477
5298.4629	98.4903
5299.4272	98.5406
5300.3911	98.5777
5301.3555	98.5855
5302.3198	98.5606
5303.2842	98.5113
5304.2480	98.4535
5305.2124	98.4032
5306.1768	98.3698
5307.1411	98.3527
5308.1050	98.3425
5309.0693	98.3279
5310.0337	98.3044
5310.9980	98.2791
5311.9619	98.268
5312.9263	98.2874
5313.8906	98.3425
5314.8550	98.4201
5315.8188	98.4921
5316.7832	98.5282
5317.7476	98.5113
5318.7119	98.4455
5319.6758	98.3531
5320.6401	98.2639
5321.6045	98.203
5322.5688	98.1841
5323.5327	98.2076
5324.4971	98.2613
5325.4614	98.3236
5326.4258	98.3694
5327.3896	98.381
5328.3540	98.3578
5329.3184	98.3182
5330.2827	98.29
5331.2466	98.2957
5332.2109	98.3404
5333.1753	98.4104
5334.1396	98.482
5335.1035	98.5351
5336.0679	98.5634
5337.0322	98.5744
5337.9966	98.5801
5338.9604	98.5864
5339.9248	98.5905
5340.8892	98.5888
5341.8535	98.5841
5342.8174	98.5855
5343.7817	98.5985
5344.7461	98.6134
5345.7104	98.6055
5346.6743	98.5518
5347.6387	98.4501
5348.6030	98.325
5349.5674	98.2191
5350.5313	98.1753
5351.4956	98.2152
5352.4600	98.3238
5353.4243	98.4546
5354.3882	98.5555
5355.3525	98.5963
5356.3169	98.5771
5357.2813	98.5172
5358.2451	98.4379
5359.2095	98.3534
5360.1738	98.2701
5361.1382	98.1919
5362.1021	98.1265
5363.0664	98.0864
5364.0308	98.0845
5364.9951	98.127
5365.9590	98.2079
5366.9233	98.3087
5367.8877	98.4044
5368.8521	98.4709
5369.8159	98.4941
5370.7803	98.4745
5371.7446	98.427
5372.7090	98.3753
5373.6729	98.3427
5374.6372	98.3408
5375.6016	98.3626
5376.5659	98.3861
5377.5298	98.3892
5378.4941	98.3667
5379.4585	98.3348
5380.4229	98.3212
5381.3867	98.3475
5382.3511	98.4142
5383.3154	98.4948
5384.2798	98.5476
5385.2437	98.5418
5386.2080	98.4798
5387.1724	98.3963
5388.1367	98.3333
5389.1006	98.3136
5390.0649	98.3308
5391.0293	98.3563
5391.9937	98.3572
5392.9575	98.3172
5393.9219	98.2473
5394.8862	98.1791
5395.8506	98.1448
5396.8145	98.1603
5397.7788	98.2227
5398.7432	98.3157
5399.7075	98.4174
5400.6714	98.5048
5401.6357	98.5579
5402.6001	98.565
5403.5645	98.5265
5404.5283	98.4554
5405.4927	98.3728
5406.4570	98.3002
5407.4214	98.2514
5408.3853	98.2289
5409.3496	98.224
5410.3140	98.2225
5411.2783	98.2142
5412.2422	98.1999
5413.2065	98.192
5414.1709	98.2057
5415.1353	98.2483
5416.0991	98.3132
5417.0635	98.3813
5418.0278	98.4292
5418.9922	98.438
5419.9561	98.4021
5420.9204	98.3322
5421.8848	98.2528
5422.8491	98.1911
5423.8130	98.1669
5424.7773	98.1857
5425.7417	98.2383
5426.7061	98.304
5427.6699	98.3588
5428.6343	98.3861
5429.5986	98.3852
5430.5630	98.37
5431.5269	98.361
5432.4912	98.3755
5433.4556	98.4203
5434.4199	98.4889
5435.3838	98.5624
5436.3481	98.617
5437.3125	98.6321
5438.2769	98.5975
5439.2407	98.517
5440.2051	98.4105
5441.1694	98.3086
5442.1338	98.2399
5443.0977	98.2151
5444.0620	98.2209
5445.0264	98.2285
5445.9907	98.2136
5446.9546	98.174
5447.9189	98.134
5448.8833	98.1297
5449.8477	98.1833
5450.8115	98.2868
5451.7759	98.4035
5452.7402	98.4866
5453.7046	98.5041
5454.6685	98.4556
5455.6328	98.3708
5456.5972	98.2912
5457.5615	98.2465
5458.5254	98.2404
5459.4897	98.2542
5460.4541	98.2624
5461.4185	98.2498
5462.3823	98.2195
5463.3467	98.1881
5464.3110	98.1758
5465.2754	98.1969
5466.2393	98.2559
5467.2036	98.3447
5468.1680	98.4444
5469.1323	98.5294
5470.0962	98.5762
5471.0605	98.5706
5472.0249	98.5133
5472.9893	98.4193
5473.9531	98.3142
5474.9175	98.2249
5475.8818	98.1681
5476.8462	98.1452
5477.8101	98.1466
5478.7744	98.1594
5479.7388	98.1738
5480.7031	98.185
5481.6670	98.1926
5482.6313	98.1987
5483.5957	98.2054
5484.5601	98.2121
5485.5239	98.2151
5486.4883	98.2101
5487.4526	98.1957
5488.4170	98.1762
5489.3809	98.1583
5490.3452	98.1441
5491.3096	98.1273
5492.2739	98.0956
5493.2378	98.0418
5494.2021	97.9745
5495.1665	97.9176
5496.1309	97.8997
5497.0947	97.9382
5498.0591	98.0283
5499.0234	98.1433
5499.9878	98.2462
5500.9517	98.3065
5501.9160	98.312
5502.8804	98.2716
5503.8447	98.2089
5504.8086	98.1523
5505.7729	98.1245
5506.7373	98.1343
5507.7017	98.1743
5508.6655	98.2272
5509.6299	98.2765
5510.5942	98.3158
5511.5586	98.3483
5512.5225	98.3784
5513.4868	98.4025
5514.4512	98.4085
5515.4155	98.3859
5516.3794	98.3383
5517.3438	98.2849
5518.3081	98.2477
5519.2725	98.2339
5520.2363	98.2289
5521.2007	98.2091
5522.1650	98.1643
5523.1294	98.1104
5524.0933	98.0795
5525.0576	98.0932
5526.0220	98.1429
5526.9863	98.1928
5527.9502	98.2048
5528.9146	98.1666
5529.8789	98.0984
5530.8433	98.0346
5531.8071	97.996
5532.7715	97.977
5533.7358	97.9572
5534.7002	97.9266
5535.6641	97.9003
5536.6284	97.9097
5537.5928	97.9774
5538.5571	98.097
5539.5210	98.2363
5540.4854	98.3588
5541.4497	98.4461
5542.4141	98.504
5543.3779	98.5485
5544.3423	98.587
5545.3066	98.6112
5546.2710	98.6067
5547.2349	98.5697
5548.1992	98.5146
5549.1636	98.4645
5550.1279	98.4337
5551.0918	98.417
5552.0562	98.3956
5553.0205	98.3544
5553.9849	98.2958
5554.9487	98.2391
5555.9131	98.2058
5556.8774	98.2038
5557.8418	98.2223
5558.8057	98.2402
5559.7700	98.24
5560.7344	98.217
5561.6987	98.178
5562.6626	98.1349
5563.6270	98.0983
5564.5913	98.0753
5565.5557	98.0703
5566.5195	98.0842
5567.4839	98.1117
5568.4482	98.1393
5569.4126	98.1484
5570.3765	98.1233
5571.3408	98.0606
5572.3052	97.9732
5573.2695	97.8873
5574.2334	97.8326
5575.1978	97.8297
5576.1621	97.8807
5577.1265	97.9662
5578.0903	98.0517
5579.0547	98.1007
5580.0190	98.0917
5580.9834	98.0285
5581.9473	97.94
5582.9116	97.8663
5583.8760	97.8415
5584.8403	97.8796
5585.8042	97.9717
5586.7686	98.0907
5587.7329	98.2006
5588.6973	98.2657
5589.6611	98.2603
5590.6255	98.1799
5591.5898	98.0467
5592.5542	97.9054
5593.5181	97.8047
5594.4824	97.7737
5595.4468	97.8069
5596.4111	97.8712
5597.3750	97.9302
5598.3394	97.9692
5599.3037	98.0003
5600.2681	98.0448
5601.2319	98.1067
5602.1963	98.1616
5603.1606	98.173
5604.1250	98.1234
5605.0889	98.0339
5606.0532	97.9548
5607.0176	97.9319
5607.9819	97.9748
5608.9458	98.0514
5609.9102	98.1133
5610.8745	98.1319
5611.8389	98.1179
5612.8027	98.1103
5613.7671	98.1425
5614.7314	98.2154
5615.6958	98.2956
5616.6597	98.3409
5617.6240	98.331
5618.5884	98.2811
5619.5527	98.228
5620.5166	98.2
5621.4810	98.1961
5622.4453	98.1875
5623.4097	98.1414
5624.3735	98.0495
5625.3379	97.938
5626.3022	97.8525
5627.2666	97.8287
5628.2305	97.8689
5629.1948	97.9418
5630.1592	98.0029
5631.1235	98.0219
5632.0874	97.9973
5633.0518	97.9494
5634.0161	97.8993
5634.9805	97.8525
5635.9443	97.7989
5636.9087	97.7285
5637.8730	97.6473
5638.8374	97.5774
5639.8013	97.5406
5640.7656	97.5386
5641.7300	97.5481
5642.6943	97.5376
5643.6582	97.4937
5644.6226	97.4373
5645.5869	97.4156
5646.5513	97.4741
5647.5151	97.6258
5648.4795	97.8382
5649.4438	98.0438
5650.4082	98.1687
5651.3721	98.1623
5652.3364	98.0163
5653.3008	97.7669
5654.2651	97.4842
5655.2290	97.2514
5656.1934	97.1401
5657.1577	97.1855
5658.1221	97.3724
5659.0859	97.6392
5660.0503	97.9028
5661.0146	98.0927
5661.9790	98.1758
5662.9429	98.1558
5663.9072	98.0544
5664.8716	97.8923
5665.8359	97.6876
5666.7998	97.4718
5667.7642	97.3007
5668.7285	97.242
5669.6929	97.3374
5670.6567	97.5643
5671.6211	97.8292
5672.5854	98.009
5673.5498	98.0213
5674.5137	97.8802
5675.4780	97.6921
5676.4424	97.5914
5677.4067	97.6567
5678.3706	97.8614
5679.3350	98.0906
5680.2993	98.2119
5681.2637	98.153
5682.2275	97.9375
5683.1919	97.6631
5684.1563	97.4459
5685.1206	97.3684
5686.0845	97.4552
5687.0488	97.6748
5688.0132	97.9585
5688.9775	98.2225
5689.9414	98.3941
5690.9058	98.4381
5691.8701	98.3743
5692.8345	98.2697
5693.7983	98.2018
5694.7627	98.213
5695.7271	98.285
5696.6914	98.3538
5697.6553	98.3541
5698.6196	98.2645
5699.5840	98.1187
5700.5483	97.9756
5701.5122	97.8752
5702.4766	97.8129
5703.4409	97.7525
5704.4053	97.6655
5705.3691	97.5663
5706.3335	97.5135
5707.2979	97.5751
5708.2622	97.7811
5709.2261	98.092
5710.1904	98.4062
5711.1548	98.6033
5712.1191	98.6026
5713.0830	98.4027
5714.0474	98.0807
5715.0117	97.7527
5715.9761	97.5203
5716.9399	97.4313
5717.9043	97.4718
5718.8687	97.5856
5719.8330	97.7069
5720.7969	97.7856
5721.7612	97.7984
5722.7256	97.7444
5723.6899	97.6373
5724.6538	97.5003
5725.6182	97.3643
5726.5825	97.2656
5727.5469	97.2386
5728.5107	97.3048
5729.4751	97.4628
5730.4395	97.6857
5731.4038	97.925
5732.3677	98.1225
5733.3320	98.2268
5734.2964	98.2124
5735.2607	98.0956
5736.2246	97.9363
5737.1890	97.8169
5738.1533	97.8037
5739.1177	97.9112
5740.0815	98.0928
5741.0459	98.2687
5742.0103	98.3757
5742.9746	98.4058
5743.9385	98.4029
5744.9028	98.418
5745.8672	98.4573
5746.8315	98.4705
5747.7954	98.3914
5748.7598	98.2015
5749.7241	97.9643
5750.6885	97.8002
5751.6523	97.8149
5752.6167	98.0319
5753.5811	98.3761
5754.5454	98.7182
5755.5093	98.9427
5756.4736	98.994
5757.4380	98.8785
5758.4023	98.6376
5759.3662	98.3224
5760.3306	97.9865
5761.2949	97.6894
5762.2593	97.4948
5763.2231	97.4531
5764.1875	97.5776
5765.1519	97.8302
5766.1162	98.1264
5767.0801	98.3619
5768.0444	98.4466
5769.0088	98.3349
5769.9731	98.0394
5770.9370	97.6257
5771.9014	97.1894
5772.8657	96.8234
5773.8301	96.5898
5774.7939	96.5106
5775.7583	96.5801
5776.7227	96.7831
5777.6870	97.1011
5778.6509	97.4989
5779.6152	97.9066
5780.5796	98.2233
5781.5439	98.3532
5782.5078	98.2567
5783.4722	97.9839
5784.4365	97.6601
5785.4009	97.4293
5786.3647	97.3852
5787.3291	97.5293
5788.2935	97.7735
5789.2578	97.9835
5790.2217	98.0372
5791.1860	97.8778
5792.1504	97.5399
5793.1147	97.1428
5794.0786	96.8489
5795.0430	96.7992
5796.0073	97.0479
5796.9717	97.5264
5797.9355	98.0599
5798.8999	98.4379
5799.8643	98.5157
5800.8286	98.294
5801.7925	97.9261
5802.7568	97.6384
5803.7212	97.6051
5804.6855	97.8517
5805.6494	98.241
5806.6138	98.5544
5807.5781	98.6227
5808.5425	98.428
5809.5063	98.1099
5810.4707	97.8708
5811.4351	97.8497
5812.3994	98.0481
5813.3633	98.3485
5814.3276	98.6059
5815.2920	98.7413
5816.2563	98.7718
5817.2202	98.7648
5818.1846	98.7637
5819.1489	98.7511
5820.1133	98.6774
5821.0771	98.5245
5822.0415	98.3442
5823.0059	98.2325
5823.9702	98.2587
5824.9341	98.4036
5825.8984	98.5592
5826.8628	98.5971
5827.8271	98.4579
5828.7910	98.1929
5829.7554	97.9282
5830.7197	97.7795
5831.6841	97.7788
5832.6479	97.86
5833.6123	97.9105
5834.5767	97.8518
5835.5410	97.6926
5836.5049	97.5219
5837.4692	97.4539
5838.4336	97.5644
5839.3979	97.8547
5840.3618	98.2527
5841.3262	98.6423
5842.2905	98.9021
5843.2549	98.9431
5844.2188	98.7369
5845.1831	98.3295
5846.1475	97.8327
5847.1118	97.3908
5848.0757	97.1313
5849.0400	97.1212
5850.0044	97.3463
5850.9688	97.721
5851.9326	98.1207
5852.8970	98.4209
5853.8613	98.5334
5854.8257	98.4324
5855.7896	98.1681
5856.7539	97.8562
5857.7183	97.6404
5858.6826	97.6325
5859.6465	97.8545
5860.6108	98.2132
5861.5752	98.5311
5862.5396	98.6318
5863.5034	98.4382
5864.4678	98.0241
5865.4321	97.5778
5866.3965	97.2984
5867.3604	97.2886
5868.3247	97.5044
5869.2891	97.7892
5870.2534	97.9701
5871.2173	97.9589
5872.1816	97.7962
5873.1460	97.6147
5874.1104	97.5533
5875.0742	97.6815
5876.0386	97.973
5877.0029	98.3308
5877.9673	98.6381
5878.9312	98.8057
5879.8955	98.7929
5880.8599	98.6017
5881.8242	98.2595
5882.7881	97.8115
5883.7524	97.3251
5884.7168	96.893
5885.6812	96.6151
5886.6450	96.5598
5887.6094	96.7244
5888.5737	97.0224
5889.5381	97.3159
5890.5020	97.4817
5891.4663	97.4724
5892.4307	97.3304
5893.3950	97.1423
5894.3589	96.973
5895.3232	96.8305
5896.2876	96.6831
5897.2520	96.5098
5898.2158	96.3363
5899.1802	96.227
5900.1445	96.2415
5901.1089	96.3985
5902.0728	96.6771
5903.0371	97.0458
5904.0015	97.4831
5904.9658	97.9643
5905.9297	98.4266
5906.8940	98.7576
5907.8584	98.8419
5908.8228	98.6446
5909.7866	98.2654
5910.7510	97.9076
5911.7153	97.7712
5912.6797	97.9417
5913.6436	98.3483
5914.6079	98.8158
5915.5723	99.1723
5916.5366	99.3363
5917.5005	99.3265
5918.4648	99.1998
5919.4292	98.9791
5920.3936	98.6341
5921.3574	98.1282
5922.3218	97.4921
5923.2861	96.8573
5924.2505	96.4127
5925.2144	96.3122
5926.1787	96.5931
5927.1431	97.155
5928.1074	97.8021
5929.0713	98.3289
5930.0356	98.6027
5931.0000	98.6029
5931.9644	98.3984
5932.9282	98.0916
5933.8926	97.7748
5934.8569	97.523
5935.8213	97.4079
5936.7852	97.5008
5937.7495	97.8435
5938.7139	98.4038
5939.6782	99.0531
5940.6421	99.5957
5941.6064	99.8463
5942.5708	99.7217
5943.5352	99.2903
5944.4990	98.74
5945.4634	98.2759
5946.4277	98.0148
5947.3921	97.9415
5948.3560	97.949
5949.3203	97.932
5950.2847	97.8724
5951.2490	97.8517
5952.2134	97.9797
5953.1772	98.2858
5954.1416	98.6514
5955.1060	98.8348
5956.0703	98.5965
5957.0342	97.8605
5957.9985	96.7991
5958.9629	95.7674
5959.9272	95.1257
5960.8911	95.0673
5961.8555	95.5496
5962.8198	96.3532
5963.7842	97.2217
5964.7480	97.9887
5965.7124	98.6103
5966.6768	99.0971
5967.6411	99.4136
5968.6050	99.4423
5969.5693	99.0553
5970.5337	98.243
5971.4980	97.1896
5972.4619	96.2238
5973.4263	95.6721
5974.3906	95.7064
5975.3550	96.2701
5976.3188	97.1161
5977.2832	97.9347
5978.2476	98.5022
5979.2119	98.7685
5980.1758	98.8395
5981.1401	98.875
5982.1045	98.971
5983.0688	99.096
5984.0327	99.1086
5984.9971	98.8425
5985.9614	98.2106
5986.9258	97.2671
5987.8896	96.1939
5988.8540	95.2305
5989.8184	94.59
5990.7827	94.4025
5991.7466	94.6997
5992.7109	95.4245
5993.6753	96.4423
5994.6396	97.5432
5995.6035	98.4565
5996.5679	98.9148
5997.5322	98.7663
5998.4966	98.0703
5999.4604	97.0904
6000.4248	96.1707
6001.3892	95.5713
6002.3535	95.3694
6003.3174	95.4728
6004.2817	95.723
6005.2461	96.0088
6006.2104	96.3103
6007.1743	96.6571
6008.1387	97.0501
6009.1030	97.4242
6010.0674	97.681
6011.0313	97.7572
6011.9956	97.6664
6012.9600	97.4782
6013.9243	97.2615
6014.8882	97.0464
6015.8525	96.8363
6016.8169	96.6551
6017.7813	96.5782
6018.7451	96.7094
6019.7095	97.1118
6020.6738	97.7439
6021.6382	98.4464
6022.6021	98.9963
6023.5664	99.2075
6024.5308	99.0282
6025.4951	98.5718
6026.4590	98.0495
6027.4233	97.6481
6028.3877	97.4392
6029.3521	97.3781
6030.3159	97.3782
6031.2803	97.3982
6032.2446	97.4754
6033.2090	97.68
6034.1729	98.026
6035.1372	98.4091
6036.1016	98.6263
6037.0659	98.4815
6038.0298	97.9211
6038.9941	97.1077
6039.9585	96.3657
6040.9229	96.0183
6041.8867	96.2133
6042.8511	96.8357
6043.8154	97.5532
6044.7798	97.9793
6045.7437	97.8849
6046.7080	97.3395
6047.6724	96.6778
6048.6367	96.3036
6049.6006	96.4637
6050.5649	97.1271
6051.5293	98.0255
6052.4937	98.8255
6053.4575	99.3289
6054.4219	99.5641
6055.3862	99.7098
6056.3506	99.9282
6057.3145	100.236
6058.2788	100.488
6059.2432	100.479
6060.2075	100.081
6061.1714	99.3477
6062.1357	98.5043
6063.1001	97.8463
6064.0645	97.6002
6065.0283	97.8057
6065.9927	98.2756
6066.9570	98.67
6067.9214	98.6733
6068.8853	98.1762
6069.8496	97.3395
6070.8140	96.4896
6071.7783	95.9255
6072.7422	95.763
6073.7065	95.9053
6074.6709	96.1449
6075.6353	96.3208
6076.5991	96.4194
6077.5635	96.5486
6078.5278	96.8205
6079.4922	97.2407
6080.4561	97.6837
6081.4204	97.9586
6082.3848	97.9164
6083.3491	97.5272
6084.3130	96.8924
6085.2773	96.2028
6086.2417	95.6768
6087.2061	95.4984
6088.1699	95.7575
6089.1343	96.4059
6090.0986	97.2542
6091.0630	98.0329
6092.0269	98.5054
6092.9912	98.5831
6093.9556	98.3691
6094.9199	98.0902
6095.8843	97.9551
6096.8481	98.0345
6097.8125	98.2376
6098.7769	98.3816
6099.7412	98.2992
6100.7051	97.9275
6101.6694	97.3374
6102.6338	96.7008
6103.5981	96.2179
6104.5620	96.0424
6105.5264	96.2343
6106.4907	96.7468
6107.4551	97.4469
6108.4189	98.1636
6109.3833	98.7495
6110.3477	99.1233
6111.3120	99.2671
6112.2759	99.1875
6113.2402	98.8842
6114.2046	98.364
6115.1689	97.6917
6116.1328	97.0225
6117.0972	96.5655
6118.0615	96.4812
6119.0259	96.7742
6119.9897	97.2578
6120.9541	97.6363
6121.9185	97.6732
6122.8828	97.3398
6123.8467	96.8353
6124.8110	96.4599
6125.7754	96.4318
6126.7397	96.7618
6127.7036	97.2561
6128.6680	97.6454
6129.6323	97.758
6130.5967	97.6167
6131.5605	97.3985
6132.5249	97.3043
6133.4893	97.4355
6134.4536	97.7458
6135.4175	98.0835
6136.3818	98.2879
6137.3462	98.2742
6138.3105	98.0582
6139.2744	97.7225
6140.2388	97.3713
6141.2031	97.1028
6142.1675	96.9937
6143.1313	97.0772
6144.0957	97.314
6145.0601	97.5862
6146.0244	97.7383
6146.9883	97.6631
6147.9526	97.3808
6148.9170	97.0418
6149.8813	96.8306
6150.8452	96.8346
6151.8096	96.9829
6152.7739	97.1006
6153.7383	97.034
6154.7021	96.7523
6155.6665	96.3538
6156.6309	95.9797
6157.5952	95.7126
6158.5591	95.5454
6159.5234	95.4374
6160.4878	95.3979
6161.4521	95.5138
6162.4160	95.8892
6163.3804	96.5478
6164.3447	97.3835
6165.3091	98.1995
6166.2729	98.8095
6167.2373	99.1303
6168.2017	99.1971
6169.1660	99.0953
6170.1299	98.8758
6171.0942	98.533
6172.0586	98.0613
6173.0229	97.5253
6173.9868	97.0648
6174.9512	96.8145
6175.9155	96.8015
6176.8799	96.9151
6177.8438	96.9876
6178.8081	96.9287
6179.7725	96.8009
6180.7368	96.7614
6181.7007	96.9047
6182.6650	97.1295
6183.6294	97.1535
6184.5938	96.6986
6185.5576	95.7208
6186.5220	94.4997
6187.4863	93.5105
6188.4507	93.1727
6189.4146	93.6328
6190.3789	94.6915
6191.3433	95.9086
6192.3076	96.839
6193.2715	97.2554
6194.2358	97.2137
6195.2002	96.9473
6196.1646	96.7032
6197.1284	96.6319
6198.0928	96.7629
6199.0571	97.0367
6200.0215	97.3498
6200.9854	97.59
6201.9497	97.6697
6202.9141	97.5658
6203.8784	97.3467
6204.8423	97.1555
6205.8066	97.1381
6206.7710	97.3505
6207.7354	97.7062
6208.6992	98.0132
6209.6636	98.0987
6210.6279	97.938
6211.5923	97.6795
6212.5562	97.5355
6213.5205	97.618
6214.4849	97.8283
6215.4492	97.8802
6216.4131	97.4725
6217.3774	96.5221
6218.3418	95.2879
6219.3062	94.2806
6220.2700	94.0176
6221.2344	94.7595
6222.1987	96.3385
6223.1631	98.1642
6224.1270	99.4762
6225.0913	99.765
6226.0557	99.0708
6227.0200	97.9067
6227.9839	96.8923
6228.9482	96.393
6229.9126	96.3723
6230.8770	96.4982
6231.8408	96.4252
6232.8052	96.0719
6233.7695	95.6883
6234.7339	95.6721
6235.6978	96.2884
6236.6621	97.4872
6237.6265	98.9057
6238.5908	100.038
6239.5547	100.484
6240.5190	100.141
6241.4834	99.2369
6242.4478	98.1708
6243.4116	97.2947
6244.3760	96.7566
6245.3403	96.4831
6246.3047	96.2779
6247.2686	95.9672
6248.2329	95.5181
6249.1973	95.0681
6250.1616	94.8406
6251.1255	94.9959
6252.0898	95.5182
6253.0542	96.2133
6254.0186	96.8161
6254.9824	97.1415
6255.9468	97.1853
6256.9111	97.1034
6257.8755	97.0898
6258.8394	97.2482
6259.8037	97.5504
6260.7681	97.8949
6261.7324	98.2026
6262.6963	98.4668
6263.6606	98.7156
6264.6250	98.9332
6265.5894	99.0259
6266.5532	98.8814
6267.5176	98.4856
6268.4819	97.9972
6269.4463	97.6907
6270.4102	97.7846
6271.3745	98.281
6272.3389	98.9346
6273.3032	99.3774
6274.2671	99.33
6275.2314	98.7688
6276.1958	97.9301
6277.1602	97.1522
6278.1240	96.686
6279.0884	96.6043
6280.0527	96.829
6281.0171	97.2117
6281.9810	97.6035
6282.9453	97.8869
6283.9097	97.9795
6284.8740	97.8381
6285.8379	97.4771
6286.8022	96.9914
6287.7666	96.5539
6288.7310	96.3717
6289.6948	96.6118
6290.6592	97.3252
6291.6235	98.3987
6292.5879	99.5591
6293.5518	100.447
6294.5161	100.757
6295.4805	100.386
6296.4448	99.4942
6297.4087	98.4288
6298.3730	97.5452
6299.3374	97.035
6300.3018	96.8454
6301.2656	96.7374
6302.2300	96.453
6303.1943	95.8887
6304.1587	95.1612
6305.1226	94.5311
6306.0869	94.2495
6307.0513	94.4264
6308.0156	94.9862
6308.9795	95.7206
6309.9438	96.4015
6310.9082	96.8848
6311.8726	97.1541
6312.8364	97.2954
6313.8008	97.4353
6314.7651	97.6757
6315.7295	98.0415
6316.6934	98.4528
6317.6577	98.7367
6318.6221	98.6945
6319.5864	98.1973
6320.5503	97.2553
6321.5146	96.0237
6322.4790	94.7647
6323.4434	93.7895
6324.4072	93.383
6325.3716	93.7016
6326.3359	94.6759
6327.3003	95.9833
6328.2642	97.148
6329.2285	97.7476
6330.1929	97.6283
6331.1572	96.9939
6332.1211	96.2879
6333.0854	95.9302
6334.0498	96.0729
6335.0142	96.5287
6335.9780	96.9125
6336.9424	96.9034
6337.9067	96.4561
6338.8711	95.8124
6339.8350	95.3186
6340.7993	95.2016
6341.7637	95.4587
6342.7280	95.911
6343.6919	96.3549
6344.6563	96.6986
6345.6206	96.9907
6346.5850	97.3377
6347.5488	97.7862
6348.5132	98.2657
6349.4775	98.6306
6350.4419	98.7566
6351.4058	98.6128
6352.3701	98.2608
6353.3345	97.795
6354.2988	97.2835
6355.2627	96.758
6356.2271	96.2523
6357.1914	95.8423
6358.1558	95.6398
6359.1196	95.7321
6360.0840	96.1047
6361.0483	96.6064
6362.0127	96.9994
6362.9766	97.0815
6363.9409	96.7954
6364.9053	96.2407
6365.8696	95.5891
6366.8335	94.9896
6367.7979	94.5396
6368.7622	94.3209
6369.7266	94.4411
6370.6904	95.0151
6371.6548	96.0794
6372.6191	97.4923
6373.5835	98.9019
6374.5474	99.8457
6375.5117	99.9679
6376.4761	99.2417
6377.4404	98.022
6378.4043	96.8565
6379.3687	96.1789
6380.3330	96.1003
6381.2974	96.4207
6382.2612	96.8095
6383.2256	97.0155
6384.1899	96.9789
6385.1543	96.8043
6386.1182	96.6317
6387.0825	96.5086
6388.0469	96.3602
6389.0112	96.0814
6389.9751	95.6625
6390.9395	95.2348
6391.9038	94.9934
6392.8682	95.0594
6393.8320	95.3843
6394.7964	95.7729
6395.7607	96.0113
6396.7251	96.0032
6397.6890	95.8118
6398.6533	95.5867
6399.6177	95.4516
6400.5820	95.4438
6401.5459	95.5361
6402.5103	95.6956
6403.4746	95.9059
6404.4390	96.1325
6405.4028	96.2849
6406.3672	96.2486
6407.3315	95.9932
6408.2959	95.6686
6409.2598	95.5799
6410.2241	96.0176
6411.1885	97.0362
6412.1528	98.3381
6413.1167	99.3761
6414.0811	99.661
6415.0454	99.0817
6416.0098	97.995
6416.9736	97.0038
6417.9380	96.5917
6418.9023	96.8568
6419.8667	97.4865
6420.8306	97.9623
6421.7949	97.8601
6422.7593	97.0667
6423.7236	95.808
6424.6875	94.5188
6425.6519	93.6567
6426.6162	93.5387
6427.5806	94.2384
6428.5444	95.5606
6429.5088	97.1023
6430.4731	98.385
6431.4375	99.0239
6432.4014	98.8745
6433.3657	98.0778
6434.3301	96.9708
6435.2944	95.926
6436.2583	95.2253
6437.2227	95.0162
6438.1870	95.3121
6439.1514	95.9953
6440.1152	96.8275
6441.0796	97.5072
6442.0439	97.7888
6443.0083	97.6056
6443.9722	97.0998
6444.9365	96.5199
6445.9009	96.0549
6446.8652	95.7282
6447.8291	95.4283
6448.7935	95.0542
6449.7578	94.6687
6450.7222	94.5346
6451.6860	94.9857
6452.6504	96.2062
6453.6147	98.062
6454.5791	100.084
6455.5430	101.63
6456.5073	102.171
6457.4717	101.569
6458.4360	100.147
6459.3999	98.472
6460.3643	97.0544
6461.3286	96.1592
6462.2930	95.8096
6463.2568	95.8897
6464.2212	96.253
6465.1855	96.7897
6466.1499	97.4388
6467.1138	98.1578
6468.0781	98.8796
6469.0425	99.4895
6470.0068	99.8393
6470.9707	99.7941
6471.9351	99.2937
6472.8994	98.3992
6473.8638	97.2932
6474.8276	96.2266
6475.7920	95.4412
6476.7563	95.1051
6477.7207	95.2745
6478.6846	95.8744
6479.6489	96.6982
6480.6133	97.4474
6481.5776	97.8332
6482.5415	97.7186
6483.5059	97.2232
6484.4702	96.6942
6485.4346	96.5258
6486.3984	96.919
6487.3628	97.7333
6488.3271	98.538
6489.2915	98.8559
6490.2554	98.4568
6491.2197	97.4903
6492.1841	96.36
6493.1484	95.4509
6494.1123	94.919
6495.0767	94.6614
6496.0410	94.4547
6497.0054	94.1487
6497.9692	93.7887
6498.9336	93.5895
6499.8979	93.8027
6500.8623	94.5813

##### Extended Information
[Comments]
Sample name
Comment
Username
Division
Organization	Uni Wrzburg

[Detailed Information]
Creation date	10/20/2025 3:07 PM

Data array type	Linear data array
Horizontal axis	Wavenumber [cm-1]
Vertical axis	%T
Start	1999.82 cm-1
End	6500.86 cm-1
Data interval	0.964233 cm-1
Data points	4669    

[Measurement Information]
Model name	FT/IR-4100typeA
Serial No.	C210961016

Measurement date	10/20/2025 3:07 PM

Light source	Standard
Detector	TGS
Accumulation	25
Resolution	4 cm-1
Zero filling	On
Apodization	Cosine
Gain	Auto (8)
Aperture	Auto (7.1 mm)
Scan speed	Auto (2 mm/sec)
Filter	Auto (30000 Hz)

