TITLE	
DATA TYPE	INFRARED SPECTRUM
ORIGIN	JASCO
OWNER	
DATE	25/10/20
TIME	14:31:53
SPECTROMETER/DATA SYSTEM	
LOCALE	1033
RESOLUTION	
DELTAX	0.964233
XUNITS	1/CM
YUNITS	TRANSMITTANCE
FIRSTX	 1999.8202
LASTX	 6500.8621
NPOINTS	    4669
FIRSTY	    96.35234
MAXY	   103.58340
MINY	    89.49360
XYDATA
1999.8202	96.3523
2000.7844	96.3975
2001.7487	96.4427
2002.7129	96.4816
2003.6771	96.5113
2004.6414	96.5305
2005.6056	96.5387
2006.5698	96.5365
2007.5341	96.5279
2008.4983	96.52
2009.4625	96.5184
2010.4268	96.5236
2011.3910	96.5287
2012.3552	96.5234
2013.3195	96.5013
2014.2837	96.4656
2015.2479	96.4292
2016.2122	96.4075
2017.1764	96.409
2018.1406	96.4299
2019.1049	96.4568
2020.0691	96.4763
2021.0333	96.4826
2021.9976	96.4788
2022.9618	96.4724
2023.9260	96.4689
2024.8903	96.4695
2025.8545	96.4721
2026.8187	96.4753
2027.7830	96.4791
2028.7472	96.4819
2029.7114	96.478
2030.6757	96.4586
2031.6399	96.4166
2032.6041	96.3537
2033.5684	96.2823
2034.5326	96.2212
2035.4968	96.1864
2036.4611	96.1834
2037.4253	96.2062
2038.3895	96.2421
2039.3538	96.278
2040.3180	96.3044
2041.2822	96.316
2042.2465	96.3103
2043.2107	96.2864
2044.1749	96.2464
2045.1392	96.1967
2046.1034	96.1477
2047.0676	96.1103
2048.0320	96.0912
2048.9961	96.0892
2049.9604	96.097
2050.9246	96.1056
2051.8889	96.1093
2052.8530	96.1075
2053.8174	96.1026
2054.7815	96.0972
2055.7458	96.0911
2056.7100	96.0821
2057.6743	96.067
2058.6384	96.0439
2059.6028	96.0132
2060.5669	95.9769
2061.5313	95.9385
2062.4954	95.903
2063.4597	95.876
2064.4238	95.8627
2065.3882	95.8645
2066.3523	95.8774
2067.3167	95.8932
2068.2808	95.9031
2069.2451	95.9022
2070.2092	95.8917
2071.1736	95.8767
2072.1377	95.8616
2073.1021	95.8466
2074.0662	95.8277
2075.0305	95.8009
2075.9946	95.7671
2076.9590	95.7336
2077.9231	95.7112
2078.8875	95.7079
2079.8516	95.7236
2080.8159	95.75
2081.7800	95.7737
2082.7444	95.7834
2083.7085	95.7741
2084.6729	95.7491
2085.6370	95.717
2086.6013	95.6875
2087.5654	95.6675
2088.5298	95.6592
2089.4939	95.6607
2090.4583	95.6675
2091.4224	95.6748
2092.3867	95.6793
2093.3508	95.6799
2094.3152	95.6781
2095.2793	95.6766
2096.2437	95.6778
2097.2078	95.6823
2098.1721	95.6883
2099.1362	95.693
2100.1006	95.6937
2101.0647	95.6894
2102.0291	95.6807
2102.9932	95.6687
2103.9575	95.6541
2104.9216	95.6362
2105.8860	95.6147
2106.8501	95.59
2107.8145	95.5646
2108.7786	95.5421
2109.7429	95.5256
2110.7070	95.5159
2111.6714	95.5115
2112.6355	95.5091
2113.5999	95.5064
2114.5640	95.503
2115.5283	95.5002
2116.4924	95.4999
2117.4568	95.502
2118.4209	95.5047
2119.3853	95.5053
2120.3494	95.5026
2121.3137	95.4983
2122.2778	95.4954
2123.2422	95.4957
2124.2063	95.4984
2125.1707	95.5001
2126.1348	95.4989
2127.0991	95.4968
2128.0632	95.5004
2129.0276	95.5167
2129.9917	95.5474
2130.9561	95.5864
2131.9202	95.6217
2132.8845	95.6416
2133.8486	95.6417
2134.8130	95.6263
2135.7771	95.605
2136.7415	95.5861
2137.7056	95.5727
2138.6699	95.564
2139.6340	95.5596
2140.5984	95.5628
2141.5625	95.5786
2142.5269	95.6088
2143.4910	95.6486
2144.4553	95.687
2145.4194	95.7137
2146.3838	95.7249
2147.3479	95.7262
2148.3123	95.7276
2149.2764	95.7356
2150.2407	95.7489
2151.2048	95.759
2152.1692	95.758
2153.1333	95.7448
2154.0977	95.7266
2155.0618	95.7138
2156.0261	95.7115
2156.9902	95.7153
2157.9546	95.7133
2158.9187	95.6945
2159.8831	95.6573
2160.8472	95.61
2161.8115	95.5643
2162.7756	95.5274
2163.7400	95.499
2164.7041	95.4734
2165.6685	95.4448
2166.6326	95.4112
2167.5969	95.3756
2168.5610	95.3447
2169.5254	95.326
2170.4895	95.3249
2171.4539	95.342
2172.4180	95.3712
2173.3823	95.4006
2174.3464	95.4165
2175.3108	95.4086
2176.2749	95.3753
2177.2393	95.3238
2178.2034	95.2661
2179.1677	95.2132
2180.1318	95.1714
2181.0962	95.1424
2182.0603	95.1257
2183.0247	95.1203
2183.9888	95.124
2184.9531	95.132
2185.9172	95.1366
2186.8816	95.1298
2187.8457	95.1085
2188.8101	95.0769
2189.7742	95.0449
2190.7385	95.0231
2191.7026	95.0172
2192.6670	95.0253
2193.6311	95.0394
2194.5955	95.0498
2195.5596	95.0493
2196.5239	95.036
2197.4880	95.0133
2198.4524	94.9877
2199.4165	94.9663
2200.3809	94.9536
2201.3450	94.9495
2202.3093	94.9498
2203.2734	94.9484
2204.2378	94.9409
2205.2019	94.9274
2206.1663	94.9124
2207.1304	94.9017
2208.0947	94.8996
2209.0588	94.9055
2210.0232	94.9148
2210.9873	94.9207
2211.9517	94.917
2212.9158	94.9
2213.8801	94.8699
2214.8442	94.83
2215.8086	94.7865
2216.7727	94.7474
2217.7371	94.7199
2218.7012	94.7085
2219.6655	94.7128
2220.6296	94.7275
2221.5940	94.7437
2222.5581	94.7518
2223.5225	94.7448
2224.4866	94.7196
2225.4509	94.6788
2226.4150	94.6288
2227.3794	94.5787
2228.3435	94.5372
2229.3079	94.5104
2230.2720	94.4992
2231.2363	94.4989
2232.2004	94.5005
2233.1648	94.4939
2234.1289	94.4726
2235.0933	94.4362
2236.0574	94.391
2237.0217	94.3461
2237.9858	94.3087
2238.9502	94.2808
2239.9143	94.259
2240.8787	94.2379
2241.8428	94.2153
2242.8071	94.1934
2243.7712	94.1773
2244.7356	94.1707
2245.6997	94.1726
2246.6641	94.1776
2247.6282	94.18
2248.5925	94.1777
2249.5566	94.1737
2250.5210	94.1732
2251.4851	94.1792
2252.4495	94.1901
2253.4136	94.2013
2254.3779	94.2096
2255.3420	94.216
2256.3064	94.2261
2257.2705	94.2447
2258.2349	94.2718
2259.1990	94.3008
2260.1633	94.3216
2261.1274	94.3274
2262.0918	94.3188
2263.0559	94.3042
2264.0203	94.2937
2264.9844	94.2931
2265.9487	94.2994
2266.9128	94.3027
2267.8772	94.2931
2268.8413	94.2672
2269.8057	94.231
2270.7698	94.1966
2271.7341	94.1757
2272.6982	94.1732
2273.6626	94.1855
2274.6267	94.2033
2275.5911	94.2167
2276.5552	94.2199
2277.5195	94.2117
2278.4836	94.1945
2279.4480	94.1715
2280.4121	94.1451
2281.3765	94.1164
2282.3406	94.0862
2283.3049	94.0557
2284.2690	94.0266
2285.2334	94.0006
2286.1975	93.9794
2287.1619	93.9637
2288.1260	93.9532
2289.0903	93.9462
2290.0544	93.9401
2291.0188	93.9325
2291.9829	93.9214
2292.9473	93.9061
2293.9114	93.8875
2294.8757	93.8672
2295.8398	93.8473
2296.8042	93.8293
2297.7683	93.8136
2298.7327	93.7989
2299.6968	93.7822
2300.6611	93.7603
2301.6252	93.7312
2302.5896	93.6962
2303.5537	93.6598
2304.5181	93.6275
2305.4822	93.6025
2306.4465	93.5837
2307.4106	93.5654
2308.3750	93.5408
2309.3391	93.5061
2310.3035	93.4634
2311.2676	93.4195
2312.2319	93.3815
2313.1960	93.3528
2314.1604	93.3309
2315.1245	93.3094
2316.0889	93.2826
2317.0530	93.2486
2318.0173	93.2101
2318.9814	93.1727
2319.9458	93.1413
2320.9099	93.1181
2321.8743	93.1019
2322.8384	93.0897
2323.8027	93.0782
2324.7668	93.0653
2325.7312	93.0505
2326.6953	93.0348
2327.6597	93.0204
2328.6238	93.0098
2329.5881	93.0045
2330.5522	93.0037
2331.5166	93.0036
2332.4807	92.9994
2333.4451	92.9872
2334.4092	92.967
2335.3735	92.9418
2336.3376	92.9162
2337.3020	92.8934
2338.2661	92.8729
2339.2305	92.8517
2340.1946	92.8269
2341.1589	92.7996
2342.1230	92.7763
2343.0874	92.7655
2344.0515	92.7724
2345.0159	92.7933
2345.9800	92.8164
2346.9443	92.8288
2347.9084	92.8218
2348.8728	92.793
2349.8369	92.7449
2350.8013	92.6842
2351.7654	92.6212
2352.7297	92.568
2353.6938	92.5335
2354.6582	92.5182
2355.6223	92.5131
2356.5867	92.5061
2357.5508	92.4898
2358.5151	92.4664
2359.4792	92.4456
2360.4436	92.4379
2361.4077	92.447
2362.3721	92.4664
2363.3362	92.4829
2364.3005	92.4838
2365.2646	92.4649
2366.2290	92.4328
2367.1931	92.4018
2368.1575	92.3861
2369.1216	92.3928
2370.0859	92.4192
2371.0500	92.4554
2372.0144	92.4905
2372.9785	92.5182
2373.9429	92.539
2374.9070	92.558
2375.8713	92.5813
2376.8354	92.6117
2377.7998	92.6481
2378.7639	92.6863
2379.7283	92.7223
2380.6924	92.754
2381.6567	92.781
2382.6208	92.8037
2383.5852	92.8215
2384.5493	92.8329
2385.5137	92.8358
2386.4778	92.83
2387.4421	92.8178
2388.4063	92.8036
2389.3706	92.7918
2390.3347	92.7851
2391.2991	92.7828
2392.2632	92.782
2393.2275	92.7788
2394.1917	92.7704
2395.1560	92.7561
2396.1201	92.7376
2397.0845	92.7183
2398.0486	92.7018
2399.0129	92.6905
2399.9771	92.6842
2400.9414	92.6804
2401.9055	92.6748
2402.8699	92.6645
2403.8340	92.6488
2404.7983	92.6299
2405.7625	92.6104
2406.7268	92.5917
2407.6909	92.5723
2408.6553	92.5498
2409.6194	92.523
2410.5837	92.4938
2411.5479	92.4668
2412.5122	92.4467
2413.4763	92.4359
2414.4407	92.433
2415.4048	92.4341
2416.3691	92.4342
2417.3333	92.4291
2418.2976	92.4164
2419.2617	92.3952
2420.2261	92.3663
2421.1902	92.3327
2422.1545	92.2991
2423.1187	92.2702
2424.0830	92.2495
2425.0471	92.2368
2426.0115	92.2291
2426.9756	92.2216
2427.9399	92.2098
2428.9041	92.1916
2429.8684	92.1669
2430.8325	92.1375
2431.7969	92.1054
2432.7610	92.0731
2433.7253	92.0427
2434.6895	92.0159
2435.6538	91.9936
2436.6179	91.9752
2437.5823	91.9594
2438.5464	91.9436
2439.5107	91.9254
2440.4749	91.9023
2441.4392	91.8734
2442.4033	91.8393
2443.3677	91.8031
2444.3318	91.7691
2445.2961	91.7417
2446.2603	91.7225
2447.2246	91.7096
2448.1887	91.6985
2449.1531	91.6846
2450.1172	91.6656
2451.0815	91.6418
2452.0457	91.6148
2453.0100	91.5856
2453.9741	91.5535
2454.9385	91.5177
2455.9026	91.4791
2456.8669	91.4411
2457.8311	91.4081
2458.7954	91.3824
2459.7595	91.3625
2460.7239	91.3432
2461.6880	91.3193
2462.6523	91.2887
2463.6165	91.2535
2464.5808	91.2188
2465.5449	91.1888
2466.5093	91.1644
2467.4734	91.1423
2468.4377	91.1177
2469.4019	91.0868
2470.3662	91.0493
2471.3303	91.0089
2472.2947	90.9705
2473.2588	90.9381
2474.2231	90.9121
2475.1873	90.89
2476.1516	90.8683
2477.1157	90.8447
2478.0801	90.82
2479.0442	90.796
2480.0085	90.7742
2480.9727	90.7533
2481.9370	90.7302
2482.9011	90.7019
2483.8655	90.6677
2484.8296	90.6302
2485.7939	90.593
2486.7581	90.5576
2487.7224	90.5229
2488.6865	90.4854
2489.6509	90.4431
2490.6150	90.3964
2491.5793	90.3487
2492.5435	90.3035
2493.5078	90.2624
2494.4719	90.2245
2495.4363	90.1872
2496.4004	90.1487
2497.3647	90.1082
2498.3289	90.0663
2499.2932	90.0242
2500.2573	89.9837
2501.2217	89.9477
2502.1858	89.9192
2503.1501	89.9005
2504.1143	89.8913
2505.0786	89.8872
2506.0427	89.8813
2507.0071	89.8673
2507.9712	89.8426
2508.9355	89.81
2509.8997	89.7774
2510.8640	89.7535
2511.8281	89.7451
2512.7925	89.7538
2513.7566	89.7761
2514.7209	89.8046
2515.6851	89.8312
2516.6494	89.8493
2517.6135	89.856
2518.5779	89.852
2519.5420	89.8415
2520.5063	89.8295
2521.4705	89.8206
2522.4348	89.8167
2523.3989	89.8173
2524.3633	89.8197
2525.3274	89.8212
2526.2917	89.82
2527.2559	89.8162
2528.2202	89.8118
2529.1843	89.8091
2530.1487	89.8098
2531.1128	89.8145
2532.0771	89.8234
2533.0413	89.8374
2534.0056	89.8587
2534.9697	89.8908
2535.9341	89.9368
2536.8982	89.998
2537.8625	90.0727
2538.8267	90.1568
2539.7910	90.2457
2540.7551	90.3351
2541.7195	90.4221
2542.6836	90.5044
2543.6479	90.5802
2544.6121	90.6481
2545.5764	90.7076
2546.5405	90.7598
2547.5049	90.8065
2548.4690	90.8489
2549.4333	90.8858
2550.3975	90.9138
2551.3618	90.9288
2552.3259	90.9284
2553.2903	90.9137
2554.2544	90.8894
2555.2188	90.8619
2556.1829	90.8368
2557.1472	90.8178
2558.1113	90.8059
2559.0757	90.8008
2560.0398	90.8015
2561.0042	90.8065
2561.9683	90.8137
2562.9326	90.8199
2563.8967	90.8216
2564.8611	90.8159
2565.8252	90.8018
2566.7896	90.7803
2567.7537	90.7544
2568.7180	90.7269
2569.6821	90.7
2570.6465	90.6743
2571.6106	90.65
2572.5750	90.6279
2573.5391	90.6099
2574.5034	90.5987
2575.4675	90.5964
2576.4319	90.6033
2577.3960	90.617
2578.3604	90.6339
2579.3245	90.651
2580.2888	90.6678
2581.2529	90.687
2582.2173	90.7135
2583.1814	90.7518
2584.1458	90.8038
2585.1099	90.8677
2586.0742	90.9385
2587.0383	91.0103
2588.0027	91.0787
2588.9668	91.1414
2589.9312	91.1978
2590.8953	91.2476
2591.8596	91.2892
2592.8237	91.3208
2593.7881	91.3405
2594.7522	91.3488
2595.7166	91.3486
2596.6807	91.3441
2597.6450	91.3395
2598.6091	91.3371
2599.5735	91.3371
2600.5376	91.3376
2601.5020	91.3361
2602.4661	91.3312
2603.4304	91.3225
2604.3945	91.3115
2605.3589	91.3003
2606.3230	91.2908
2607.2874	91.2832
2608.2515	91.277
2609.2158	91.2706
2610.1799	91.263
2611.1443	91.2534
2612.1084	91.2415
2613.0728	91.2258
2614.0369	91.2046
2615.0012	91.1765
2615.9653	91.1418
2616.9297	91.1035
2617.8938	91.0658
2618.8582	91.0317
2619.8223	91.0017
2620.7866	90.9733
2621.7507	90.9431
2622.7151	90.909
2623.6792	90.8711
2624.6436	90.8316
2625.6077	90.7927
2626.5720	90.7556
2627.5361	90.7206
2628.5005	90.6875
2629.4646	90.6563
2630.4290	90.6268
2631.3931	90.5982
2632.3574	90.5689
2633.3215	90.5376
2634.2859	90.5041
2635.2500	90.4701
2636.2144	90.4381
2637.1785	90.4096
2638.1428	90.3839
2639.1069	90.3581
2640.0713	90.3287
2641.0354	90.2937
2641.9998	90.2535
2642.9639	90.2102
2643.9282	90.1667
2644.8923	90.1252
2645.8567	90.0871
2646.8208	90.0533
2647.7852	90.0246
2648.7493	90.0022
2649.7136	89.9861
2650.6777	89.9751
2651.6421	89.9666
2652.6062	89.9571
2653.5706	89.9446
2654.5347	89.929
2655.4990	89.9131
2656.4631	89.9009
2657.4275	89.8966
2658.3916	89.9023
2659.3560	89.9179
2660.3201	89.9409
2661.2844	89.9679
2662.2485	89.9953
2663.2129	90.0203
2664.1770	90.0414
2665.1414	90.058
2666.1055	90.0703
2667.0698	90.0786
2668.0339	90.0838
2668.9983	90.0869
2669.9624	90.0894
2670.9268	90.0931
2671.8909	90.0992
2672.8552	90.1077
2673.8193	90.1175
2674.7837	90.1267
2675.7478	90.1336
2676.7122	90.1378
2677.6763	90.1403
2678.6406	90.1425
2679.6047	90.1457
2680.5691	90.15
2681.5332	90.1548
2682.4976	90.1599
2683.4617	90.1661
2684.4260	90.175
2685.3901	90.188
2686.3545	90.2049
2687.3186	90.2241
2688.2830	90.2427
2689.2471	90.2588
2690.2114	90.2719
2691.1755	90.2833
2692.1399	90.2951
2693.1040	90.3087
2694.0684	90.3252
2695.0325	90.3448
2695.9968	90.3676
2696.9609	90.3941
2697.9253	90.4243
2698.8894	90.4573
2699.8538	90.4913
2700.8179	90.5243
2701.7822	90.5557
2702.7463	90.5869
2703.7107	90.6205
2704.6748	90.6588
2705.6392	90.7018
2706.6033	90.7467
2707.5676	90.7892
2708.5317	90.8258
2709.4961	90.8558
2710.4602	90.8813
2711.4246	90.9056
2712.3887	90.9307
2713.3530	90.9562
2714.3171	90.98
2715.2815	91.0005
2716.2456	91.0177
2717.2100	91.0339
2718.1741	91.0515
2719.1384	91.0714
2720.1025	91.0919
2721.0669	91.1096
2722.0310	91.1215
2722.9954	91.127
2723.9595	91.1279
2724.9238	91.1279
2725.8879	91.1305
2726.8523	91.1372
2727.8164	91.1481
2728.7808	91.1618
2729.7449	91.1774
2730.7092	91.1934
2731.6733	91.2085
2732.6377	91.22
2733.6018	91.225
2734.5662	91.221
2735.5303	91.2078
2736.4946	91.1876
2737.4587	91.1648
2738.4231	91.1433
2739.3872	91.1258
2740.3516	91.1128
2741.3157	91.1031
2742.2800	91.0952
2743.2441	91.0876
2744.2085	91.0796
2745.1726	91.0707
2746.1370	91.0604
2747.1011	91.0485
2748.0654	91.0347
2749.0295	91.019
2749.9939	91.0014
2750.9580	90.9823
2751.9224	90.9628
2752.8865	90.9446
2753.8508	90.9295
2754.8149	90.918
2755.7793	90.9085
2756.7434	90.8979
2757.7078	90.8821
2758.6719	90.8587
2759.6362	90.828
2760.6003	90.7932
2761.5647	90.7592
2762.5288	90.7306
2763.4932	90.7095
2764.4573	90.6952
2765.4216	90.6852
2766.3857	90.6762
2767.3501	90.6652
2768.3142	90.6501
2769.2786	90.6291
2770.2427	90.6017
2771.2070	90.5685
2772.1711	90.5322
2773.1355	90.4969
2774.0996	90.4666
2775.0640	90.4424
2776.0281	90.4222
2776.9924	90.4009
2777.9565	90.3736
2778.9209	90.3385
2779.8850	90.2981
2780.8494	90.2575
2781.8135	90.2218
2782.7778	90.1932
2783.7419	90.1702
2784.7063	90.1499
2785.6704	90.1297
2786.6348	90.1093
2787.5989	90.0903
2788.5632	90.0748
2789.5273	90.0632
2790.4917	90.0535
2791.4558	90.0425
2792.4202	90.027
2793.3843	90.0056
2794.3486	89.9794
2795.3127	89.951
2796.2771	89.9234
2797.2412	89.8988
2798.2056	89.8778
2799.1697	89.8597
2800.1340	89.8435
2801.0981	89.8283
2802.0625	89.8137
2803.0266	89.7996
2803.9910	89.7859
2804.9551	89.7726
2805.9194	89.7598
2806.8835	89.7475
2807.8479	89.7354
2808.8120	89.7225
2809.7764	89.7079
2810.7405	89.6911
2811.7048	89.6735
2812.6689	89.6576
2813.6333	89.6463
2814.5974	89.6409
2815.5618	89.6401
2816.5259	89.6405
2817.4902	89.6383
2818.4543	89.631
2819.4187	89.6187
2820.3828	89.6042
2821.3472	89.5914
2822.3113	89.5839
2823.2756	89.5832
2824.2397	89.5885
2825.2041	89.5973
2826.1682	89.6064
2827.1326	89.6136
2828.0967	89.6181
2829.0610	89.6209
2830.0251	89.6241
2830.9895	89.6293
2831.9536	89.6373
2832.9180	89.6476
2833.8821	89.659
2834.8464	89.67
2835.8105	89.6797
2836.7749	89.6879
2837.7390	89.6953
2838.7034	89.703
2839.6675	89.7118
2840.6318	89.7213
2841.5959	89.7294
2842.5603	89.7327
2843.5244	89.728
2844.4888	89.7139
2845.4529	89.6922
2846.4172	89.6677
2847.3813	89.646
2848.3457	89.6317
2849.3098	89.6259
2850.2742	89.6265
2851.2383	89.6293
2852.2026	89.6304
2853.1667	89.6276
2854.1311	89.6203
2855.0952	89.6094
2856.0596	89.5959
2857.0237	89.5811
2857.9880	89.5664
2858.9521	89.5536
2859.9165	89.5451
2860.8806	89.5429
2861.8450	89.5478
2862.8091	89.5595
2863.7734	89.5762
2864.7375	89.5956
2865.7019	89.616
2866.6660	89.6369
2867.6304	89.6584
2868.5945	89.6806
2869.5588	89.703
2870.5229	89.7242
2871.4873	89.7427
2872.4514	89.7582
2873.4158	89.7725
2874.3799	89.7888
2875.3442	89.8113
2876.3083	89.8432
2877.2727	89.8855
2878.2368	89.9367
2879.2012	89.9931
2880.1653	90.0503
2881.1296	90.1039
2882.0938	90.1511
2883.0581	90.1912
2884.0222	90.2258
2884.9866	90.2577
2885.9507	90.2897
2886.9150	90.3227
2887.8792	90.3554
2888.8435	90.3849
2889.8076	90.4082
2890.7720	90.4243
2891.7361	90.435
2892.7004	90.4439
2893.6646	90.4549
2894.6289	90.4698
2895.5930	90.4876
2896.5574	90.5046
2897.5215	90.5169
2898.4858	90.5223
2899.4500	90.5219
2900.4143	90.519
2901.3784	90.5177
2902.3428	90.5202
2903.3069	90.5259
2904.2712	90.5318
2905.2354	90.5349
2906.1997	90.5337
2907.1638	90.5292
2908.1282	90.5236
2909.0923	90.5189
2910.0566	90.5158
2911.0208	90.5147
2911.9851	90.5157
2912.9492	90.5198
2913.9136	90.5275
2914.8777	90.5385
2915.8420	90.5511
2916.8062	90.563
2917.7705	90.5742
2918.7346	90.5872
2919.6990	90.6066
2920.6631	90.6364
2921.6274	90.6768
2922.5916	90.7239
2923.5559	90.7708
2924.5200	90.8115
2925.4844	90.8428
2926.4485	90.865
2927.4128	90.8798
2928.3770	90.8873
2929.3413	90.8857
2930.3054	90.8731
2931.2698	90.8505
2932.2339	90.824
2933.1982	90.8034
2934.1624	90.7979
2935.1267	90.8113
2936.0908	90.8397
2937.0552	90.873
2938.0193	90.8998
2938.9836	90.9128
2939.9478	90.9115
2940.9121	90.9014
2941.8762	90.8906
2942.8406	90.8856
2943.8047	90.8891
2944.7690	90.8997
2945.7332	90.9138
2946.6975	90.9271
2947.6616	90.937
2948.6260	90.9429
2949.5901	90.9462
2950.5544	90.9497
2951.5186	90.956
2952.4829	90.9663
2953.4470	90.9791
2954.4114	90.9902
2955.3755	90.9943
2956.3398	90.9877
2957.3040	90.971
2958.2683	90.9491
2959.2324	90.9301
2960.1968	90.921
2961.1609	90.9249
2962.1252	90.9387
2963.0894	90.9553
2964.0537	90.9663
2965.0178	90.966
2965.9822	90.9534
2966.9463	90.9318
2967.9106	90.9065
2968.8748	90.8829
2969.8391	90.8639
2970.8032	90.8497
2971.7676	90.8381
2972.7317	90.8266
2973.6960	90.8141
2974.6602	90.8018
2975.6245	90.7929
2976.5886	90.7904
2977.5530	90.7948
2978.5171	90.8033
2979.4814	90.8106
2980.4456	90.8121
2981.4099	90.8061
2982.3740	90.7952
2983.3384	90.7842
2984.3025	90.778
2985.2668	90.7789
2986.2310	90.7864
2987.1953	90.7981
2988.1594	90.811
2989.1238	90.8232
2990.0879	90.8336
2991.0522	90.8424
2992.0164	90.8504
2992.9807	90.8587
2993.9448	90.8681
2994.9092	90.8793
2995.8733	90.8925
2996.8376	90.9071
2997.8018	90.9221
2998.7661	90.9361
2999.7302	90.9472
3000.6946	90.9548
3001.6587	90.96
3002.6230	90.9662
3003.5872	90.9781
3004.5515	90.9987
3005.5156	91.0277
3006.4800	91.0604
3007.4441	91.0904
3008.4084	91.113
3009.3726	91.1277
3010.3369	91.1378
3011.3010	91.1484
3012.2654	91.1623
3013.2295	91.1792
3014.1938	91.1969
3015.1580	91.2138
3016.1223	91.2312
3017.0864	91.2528
3018.0508	91.2821
3019.0149	91.3194
3019.9792	91.3609
3020.9434	91.4
3021.9077	91.4302
3022.8718	91.4479
3023.8362	91.4546
3024.8003	91.4558
3025.7646	91.4584
3026.7290	91.4677
3027.6931	91.4849
3028.6572	91.5074
3029.6216	91.5296
3030.5859	91.5467
3031.5500	91.556
3032.5142	91.5582
3033.4785	91.5563
3034.4429	91.5544
3035.4070	91.5556
3036.3711	91.5618
3037.3354	91.5732
3038.2998	91.5887
3039.2639	91.6063
3040.2280	91.6234
3041.1924	91.638
3042.1567	91.6492
3043.1208	91.658
3044.0850	91.6663
3045.0493	91.6758
3046.0137	91.6868
3046.9778	91.6981
3047.9419	91.7079
3048.9063	91.7154
3049.8706	91.7212
3050.8347	91.7269
3051.7988	91.734
3052.7632	91.7428
3053.7275	91.7525
3054.6917	91.762
3055.6558	91.7702
3056.6201	91.7763
3057.5845	91.7789
3058.5486	91.7766
3059.5127	91.7685
3060.4771	91.7553
3061.4414	91.7397
3062.4055	91.7252
3063.3696	91.7137
3064.3340	91.7044
3065.2983	91.6927
3066.2625	91.673
3067.2266	91.6402
3068.1909	91.5921
3069.1553	91.5292
3070.1194	91.4531
3071.0835	91.3657
3072.0479	91.2668
3073.0122	91.1536
3073.9763	91.0197
3074.9404	90.8566
3075.9048	90.657
3076.8691	90.4203
3077.8333	90.1581
3078.7974	89.8967
3079.7617	89.6734
3080.7261	89.5284
3081.6902	89.4936
3082.6543	89.5845
3083.6187	89.7976
3084.5830	90.1133
3085.5471	90.5018
3086.5112	90.9295
3087.4756	91.3632
3088.4399	91.7733
3089.4041	92.1355
3090.3682	92.433
3091.3325	92.6573
3092.2969	92.809
3093.2610	92.8964
3094.2251	92.9343
3095.1895	92.9399
3096.1538	92.9301
3097.1179	92.9186
3098.0820	92.9152
3099.0464	92.9269
3100.0107	92.9585
3100.9749	93.0127
3101.9390	93.0891
3102.9033	93.1826
3103.8677	93.2848
3104.8318	93.3858
3105.7959	93.4781
3106.7603	93.559
3107.7246	93.6312
3108.6887	93.6997
3109.6528	93.7682
3110.6172	93.8369
3111.5815	93.9021
3112.5457	93.9593
3113.5098	94.0062
3114.4741	94.0444
3115.4385	94.0782
3116.4026	94.112
3117.3667	94.1472
3118.3311	94.1819
3119.2954	94.2128
3120.2595	94.2375
3121.2236	94.2561
3122.1880	94.2714
3123.1523	94.2866
3124.1165	94.3041
3125.0806	94.324
3126.0449	94.3455
3127.0093	94.3674
3127.9734	94.3899
3128.9375	94.4137
3129.9019	94.4396
3130.8662	94.4677
3131.8303	94.4975
3132.7944	94.5278
3133.7588	94.558
3134.7231	94.588
3135.6873	94.6177
3136.6514	94.647
3137.6157	94.6746
3138.5801	94.6988
3139.5442	94.7183
3140.5083	94.7337
3141.4727	94.748
3142.4370	94.7657
3143.4011	94.7911
3144.3652	94.8251
3145.3296	94.8637
3146.2939	94.8992
3147.2581	94.9236
3148.2222	94.9332
3149.1865	94.931
3150.1509	94.9261
3151.1150	94.9291
3152.0791	94.9473
3153.0435	94.9818
3154.0078	95.028
3154.9719	95.0787
3155.9360	95.1281
3156.9004	95.1729
3157.8647	95.2117
3158.8289	95.2434
3159.7930	95.2665
3160.7573	95.2804
3161.7217	95.287
3162.6858	95.2907
3163.6499	95.297
3164.6143	95.3094
3165.5786	95.3278
3166.5427	95.3487
3167.5068	95.3679
3168.4712	95.3826
3169.4355	95.393
3170.3997	95.4017
3171.3638	95.4121
3172.3281	95.4264
3173.2925	95.4455
3174.2566	95.4691
3175.2207	95.4963
3176.1851	95.5261
3177.1494	95.5581
3178.1135	95.5912
3179.0776	95.6242
3180.0420	95.6546
3181.0063	95.6796
3181.9705	95.6968
3182.9346	95.7057
3183.8989	95.7094
3184.8633	95.7143
3185.8274	95.7281
3186.7915	95.7565
3187.7559	95.7997
3188.7202	95.8513
3189.6843	95.9008
3190.6484	95.9373
3191.6128	95.9555
3192.5771	95.9576
3193.5413	95.9526
3194.5054	95.9517
3195.4697	95.9633
3196.4341	95.9893
3197.3982	96.0251
3198.3623	96.063
3199.3267	96.0962
3200.2910	96.1226
3201.2551	96.1444
3202.2192	96.1665
3203.1836	96.1928
3204.1479	96.2239
3205.1121	96.2569
3206.0762	96.2872
3207.0405	96.3118
3208.0049	96.3308
3208.9690	96.3473
3209.9331	96.3654
3210.8975	96.3866
3211.8618	96.409
3212.8259	96.4289
3213.7900	96.4442
3214.7544	96.4566
3215.7188	96.471
3216.6829	96.4919
3217.6470	96.519
3218.6113	96.5472
3219.5757	96.5692
3220.5398	96.5816
3221.5039	96.5872
3222.4683	96.5936
3223.4326	96.6083
3224.3967	96.6333
3225.3608	96.6644
3226.3252	96.6947
3227.2896	96.7196
3228.2537	96.7396
3229.2178	96.759
3230.1821	96.7818
3231.1465	96.8082
3232.1106	96.8347
3233.0747	96.8576
3234.0391	96.877
3235.0034	96.8973
3235.9675	96.9249
3236.9316	96.963
3237.8960	97.0078
3238.8604	97.0495
3239.8245	97.0776
3240.7886	97.0866
3241.7529	97.08
3242.7173	97.0673
3243.6814	97.0589
3244.6455	97.06
3245.6099	97.0685
3246.5742	97.0785
3247.5383	97.0864
3248.5024	97.0941
3249.4668	97.1076
3250.4312	97.1323
3251.3953	97.1675
3252.3594	97.2061
3253.3237	97.2376
3254.2881	97.2549
3255.2522	97.2575
3256.2163	97.2518
3257.1807	97.2475
3258.1450	97.2528
3259.1091	97.2717
3260.0732	97.3027
3261.0376	97.3398
3262.0020	97.3742
3262.9661	97.3969
3263.9302	97.4029
3264.8945	97.3938
3265.8589	97.3788
3266.8230	97.3712
3267.7871	97.3822
3268.7515	97.4149
3269.7158	97.4623
3270.6799	97.5104
3271.6440	97.5453
3272.6084	97.5598
3273.5728	97.5569
3274.5369	97.547
3275.5010	97.5417
3276.4653	97.548
3277.4297	97.5657
3278.3938	97.5905
3279.3579	97.6175
3280.3223	97.6449
3281.2866	97.6735
3282.2507	97.7039
3283.2148	97.735
3284.1792	97.7632
3285.1436	97.7857
3286.1077	97.8022
3287.0718	97.8156
3288.0361	97.8291
3289.0005	97.8434
3289.9646	97.8552
3290.9287	97.86
3291.8931	97.8556
3292.8574	97.8449
3293.8215	97.8353
3294.7856	97.8347
3295.7500	97.848
3296.7144	97.8746
3297.6785	97.9093
3298.6426	97.9442
3299.6069	97.972
3300.5713	97.9877
3301.5354	97.9905
3302.4995	97.9844
3303.4639	97.9763
3304.4282	97.974
3305.3923	97.9819
3306.3564	97.9986
3307.3208	98.018
3308.2852	98.032
3309.2493	98.0357
3310.2134	98.0302
3311.1777	98.0225
3312.1421	98.0221
3313.1062	98.0373
3314.0703	98.071
3315.0347	98.12
3315.9990	98.1752
3316.9631	98.2245
3317.9272	98.257
3318.8916	98.2676
3319.8560	98.2588
3320.8201	98.2398
3321.7842	98.222
3322.7485	98.2134
3323.7129	98.2159
3324.6770	98.2262
3325.6411	98.2396
3326.6055	98.2541
3327.5698	98.2708
3328.5339	98.2913
3329.4980	98.3148
3330.4624	98.3368
3331.4268	98.351
3332.3909	98.3527
3333.3550	98.3416
3334.3193	98.3219
3335.2837	98.301
3336.2478	98.2868
3337.2119	98.2852
3338.1763	98.2982
3339.1406	98.3226
3340.1047	98.3507
3341.0688	98.3733
3342.0332	98.3839
3342.9976	98.3816
3343.9617	98.3718
3344.9258	98.3631
3345.8901	98.3621
3346.8545	98.3706
3347.8186	98.3854
3348.7827	98.4014
3349.7471	98.4148
3350.7114	98.425
3351.6755	98.4334
3352.6396	98.4425
3353.6040	98.4534
3354.5684	98.4661
3355.5325	98.4783
3356.4966	98.4866
3357.4609	98.4872
3358.4253	98.4786
3359.3894	98.4634
3360.3535	98.4485
3361.3179	98.4426
3362.2822	98.4515
3363.2463	98.4743
3364.2104	98.5041
3365.1748	98.5323
3366.1392	98.5543
3367.1033	98.572
3368.0674	98.5916
3369.0317	98.6173
3369.9961	98.6466
3370.9602	98.6706
3371.9243	98.6791
3372.8887	98.6671
3373.8530	98.6388
3374.8171	98.6055
3375.7813	98.5795
3376.7456	98.5683
3377.7100	98.5716
3378.6741	98.5837
3379.6382	98.5972
3380.6025	98.6067
3381.5669	98.6097
3382.5310	98.6058
3383.4951	98.5959
3384.4595	98.5828
3385.4238	98.5709
3386.3879	98.566
3387.3521	98.5718
3388.3164	98.5876
3389.2808	98.6077
3390.2449	98.6247
3391.2090	98.6339
3392.1733	98.6369
3393.1377	98.6405
3394.1018	98.6524
3395.0659	98.6749
3396.0303	98.7034
3396.9946	98.7284
3397.9587	98.7413
3398.9229	98.739
3399.8872	98.7243
3400.8516	98.7039
3401.8157	98.6842
3402.7798	98.6695
3403.7441	98.6623
3404.7085	98.6642
3405.6726	98.6764
3406.6367	98.6981
3407.6011	98.7252
3408.5654	98.7505
3409.5295	98.7662
3410.4937	98.7681
3411.4580	98.7572
3412.4224	98.7391
3413.3865	98.7194
3414.3506	98.7008
3415.3149	98.6825
3416.2793	98.6632
3417.2434	98.6447
3418.2075	98.6327
3419.1719	98.6339
3420.1362	98.651
3421.1003	98.6791
3422.0645	98.7081
3423.0288	98.7289
3423.9932	98.7387
3424.9573	98.7412
3425.9214	98.7415
3426.8857	98.7418
3427.8501	98.7387
3428.8142	98.7275
3429.7783	98.7085
3430.7427	98.6897
3431.7070	98.6837
3432.6711	98.7004
3433.6353	98.739
3434.5996	98.7878
3435.5640	98.8297
3436.5281	98.8516
3437.4922	98.8513
3438.4565	98.8376
3439.4209	98.8248
3440.3850	98.824
3441.3491	98.8373
3442.3135	98.8571
3443.2778	98.8703
3444.2419	98.8662
3445.2061	98.8422
3446.1704	98.8066
3447.1348	98.7749
3448.0989	98.7614
3449.0630	98.771
3450.0273	98.7968
3450.9917	98.8247
3451.9558	98.841
3452.9199	98.8398
3453.8843	98.8255
3454.8486	98.809
3455.8127	98.8011
3456.7769	98.806
3457.7412	98.8206
3458.7056	98.8376
3459.6697	98.8502
3460.6338	98.8553
3461.5981	98.8537
3462.5625	98.8482
3463.5266	98.8416
3464.4907	98.8359
3465.4551	98.8325
3466.4194	98.8315
3467.3835	98.8317
3468.3477	98.8304
3469.3120	98.825
3470.2764	98.8151
3471.2405	98.8027
3472.2046	98.791
3473.1689	98.7823
3474.1333	98.7761
3475.0974	98.7694
3476.0615	98.7604
3477.0259	98.7503
3477.9902	98.7436
3478.9543	98.7448
3479.9185	98.7546
3480.8828	98.7678
3481.8472	98.7758
3482.8113	98.7724
3483.7754	98.7581
3484.7397	98.7401
3485.7041	98.7279
3486.6682	98.7284
3487.6323	98.7419
3488.5967	98.7624
3489.5610	98.7813
3490.5251	98.7917
3491.4893	98.7912
3492.4536	98.7819
3493.4180	98.769
3494.3821	98.7587
3495.3462	98.7551
3496.3105	98.7594
3497.2749	98.7687
3498.2390	98.7778
3499.2031	98.7816
3500.1675	98.7773
3501.1318	98.766
3502.0959	98.7519
3503.0601	98.7402
3504.0244	98.7332
3504.9888	98.7297
3505.9529	98.7261
3506.9170	98.7192
3507.8813	98.7086
3508.8457	98.6966
3509.8098	98.6876
3510.7739	98.6858
3511.7383	98.6938
3512.7026	98.7124
3513.6667	98.7395
3514.6309	98.7699
3515.5952	98.7939
3516.5596	98.7998
3517.5237	98.7783
3518.4878	98.7295
3519.4521	98.665
3520.4165	98.6063
3521.3806	98.5761
3522.3447	98.5878
3523.3091	98.6379
3524.2734	98.7069
3525.2375	98.7692
3526.2017	98.8053
3527.1660	98.8094
3528.1304	98.7896
3529.0945	98.7603
3530.0586	98.7336
3531.0229	98.7137
3531.9873	98.6982
3532.9514	98.6816
3533.9155	98.6612
3534.8799	98.6394
3535.8442	98.6234
3536.8083	98.6211
3537.7725	98.6361
3538.7368	98.6641
3539.7012	98.6938
3540.6653	98.7118
3541.6294	98.7083
3542.5938	98.6818
3543.5581	98.6416
3544.5222	98.604
3545.4863	98.5853
3546.4507	98.5922
3547.4150	98.6195
3548.3792	98.6547
3549.3433	98.686
3550.3076	98.7066
3551.2720	98.7154
3552.2361	98.7159
3553.2002	98.7126
3554.1646	98.709
3555.1289	98.7061
3556.0930	98.7033
3557.0571	98.7006
3558.0215	98.6986
3558.9858	98.6985
3559.9500	98.6994
3560.9141	98.696
3561.8784	98.6791
3562.8428	98.6387
3563.8069	98.5705
3564.7710	98.4822
3565.7354	98.3987
3566.6997	98.3539
3567.6638	98.3689
3568.6279	98.4354
3569.5923	98.5257
3570.5566	98.6127
3571.5208	98.6796
3572.4849	98.7184
3573.4492	98.7278
3574.4136	98.7109
3575.3777	98.6761
3576.3418	98.6353
3577.3062	98.6008
3578.2705	98.5815
3579.2346	98.5795
3580.1987	98.5892
3581.1631	98.6003
3582.1274	98.6024
3583.0916	98.5891
3584.0557	98.56
3585.0200	98.5215
3585.9844	98.4858
3586.9485	98.4666
3587.9126	98.4706
3588.8770	98.4924
3589.8413	98.5204
3590.8054	98.5449
3591.7695	98.5624
3592.7339	98.5746
3593.6982	98.5851
3594.6624	98.596
3595.6265	98.6048
3596.5908	98.6054
3597.5552	98.5936
3598.5193	98.5709
3599.4834	98.5452
3600.4478	98.5265
3601.4121	98.5201
3602.3762	98.5228
3603.3403	98.5254
3604.3047	98.5187
3605.2690	98.4987
3606.2332	98.4684
3607.1973	98.4357
3608.1616	98.4089
3609.1260	98.3922
3610.0901	98.3848
3611.0542	98.3854
3612.0186	98.3927
3612.9829	98.4045
3613.9470	98.415
3614.9111	98.4161
3615.8755	98.4022
3616.8398	98.3767
3617.8040	98.3543
3618.7681	98.3544
3619.7324	98.3863
3620.6968	98.4379
3621.6609	98.4843
3622.6250	98.5045
3623.5894	98.4897
3624.5537	98.4423
3625.5178	98.3735
3626.4819	98.3029
3627.4463	98.2581
3628.4106	98.2619
3629.3748	98.3129
3630.3389	98.3859
3631.3032	98.4567
3632.2676	98.5145
3633.2317	98.5583
3634.1958	98.5896
3635.1602	98.6103
3636.1245	98.6228
3637.0886	98.6293
3638.0527	98.6311
3639.0171	98.6272
3639.9814	98.6142
3640.9456	98.5892
3641.9097	98.5516
3642.8740	98.5038
3643.8384	98.4483
3644.8025	98.3857
3645.7666	98.315
3646.7310	98.2388
3647.6953	98.1714
3648.6594	98.1399
3649.6235	98.1611
3650.5879	98.2212
3651.5522	98.2926
3652.5164	98.3561
3653.4805	98.4044
3654.4448	98.4371
3655.4092	98.4566
3656.3733	98.4671
3657.3374	98.4731
3658.3018	98.479
3659.2661	98.4886
3660.2302	98.5047
3661.1943	98.5275
3662.1587	98.5531
3663.1230	98.5728
3664.0872	98.5761
3665.0513	98.5541
3666.0156	98.5035
3666.9800	98.4283
3667.9441	98.3427
3668.9082	98.2689
3669.8726	98.2242
3670.8369	98.2068
3671.8010	98.1994
3672.7651	98.1857
3673.7295	98.1621
3674.6938	98.1411
3675.6580	98.1431
3676.6221	98.178
3677.5864	98.236
3678.5508	98.3002
3679.5149	98.359
3680.4790	98.4082
3681.4434	98.4473
3682.4077	98.4759
3683.3718	98.4922
3684.3359	98.4927
3685.3003	98.4731
3686.2646	98.4303
3687.2288	98.368
3688.1929	98.3022
3689.1572	98.2585
3690.1216	98.2545
3691.0857	98.2851
3692.0498	98.332
3693.0142	98.378
3693.9785	98.4136
3694.9426	98.4359
3695.9067	98.4459
3696.8711	98.4469
3697.8354	98.4412
3698.7996	98.4301
3699.7637	98.414
3700.7280	98.3952
3701.6924	98.3787
3702.6565	98.3705
3703.6206	98.3735
3704.5850	98.3844
3705.5493	98.3943
3706.5134	98.3921
3707.4775	98.368
3708.4419	98.3191
3709.4063	98.2573
3710.3704	98.2097
3711.3345	98.2029
3712.2988	98.2394
3713.2632	98.2972
3714.2273	98.3514
3715.1914	98.3884
3716.1558	98.4056
3717.1201	98.4056
3718.0842	98.391
3719.0483	98.3619
3720.0127	98.3179
3720.9771	98.2618
3721.9412	98.2037
3722.9053	98.1593
3723.8696	98.1443
3724.8340	98.1663
3725.7981	98.2187
3726.7622	98.2843
3727.7266	98.3431
3728.6909	98.3782
3729.6550	98.3773
3730.6191	98.3326
3731.5835	98.2434
3732.5479	98.1244
3733.5120	98.0118
3734.4761	97.9529
3735.4404	97.9732
3736.4048	98.0536
3737.3689	98.1487
3738.3330	98.2221
3739.2974	98.2592
3740.2617	98.2603
3741.2258	98.2313
3742.1899	98.1801
3743.1543	98.1169
3744.1187	98.0542
3745.0828	98.0004
3746.0469	97.9553
3747.0112	97.9154
3747.9756	97.8835
3748.9397	97.8725
3749.9038	97.9013
3750.8682	97.9746
3751.8325	98.0679
3752.7966	98.1446
3753.7607	98.1853
3754.7251	98.1926
3755.6895	98.1812
3756.6536	98.1708
3757.6177	98.1804
3758.5820	98.218
3759.5464	98.274
3760.5105	98.3274
3761.4746	98.3602
3762.4390	98.3666
3763.4033	98.3518
3764.3674	98.3264
3765.3315	98.3004
3766.2959	98.2795
3767.2603	98.2652
3768.2244	98.2591
3769.1885	98.2657
3770.1528	98.2896
3771.1172	98.329
3772.0813	98.3722
3773.0454	98.4036
3774.0098	98.411
3774.9741	98.3916
3775.9382	98.3538
3776.9023	98.3152
3777.8667	98.295
3778.8311	98.3027
3779.7952	98.3307
3780.7593	98.3606
3781.7236	98.3768
3782.6880	98.3754
3783.6521	98.3633
3784.6162	98.3531
3785.5806	98.3557
3786.5449	98.3758
3787.5090	98.4098
3788.4731	98.448
3789.4375	98.4783
3790.4019	98.4903
3791.3660	98.478
3792.3301	98.4426
3793.2944	98.3922
3794.2588	98.3397
3795.2229	98.2965
3796.1870	98.2665
3797.1514	98.2443
3798.1157	98.2206
3799.0798	98.1901
3800.0439	98.1577
3801.0083	98.1365
3801.9727	98.1368
3802.9368	98.1576
3803.9009	98.1901
3804.8652	98.2261
3805.8296	98.2622
3806.7937	98.2974
3807.7578	98.3293
3808.7222	98.3535
3809.6865	98.3664
3810.6506	98.3667
3811.6147	98.3556
3812.5791	98.3343
3813.5435	98.3035
3814.5076	98.2642
3815.4717	98.2181
3816.4360	98.1684
3817.4004	98.1197
3818.3645	98.0776
3819.3286	98.0493
3820.2930	98.0414
3821.2573	98.0555
3822.2214	98.0858
3823.1855	98.1238
3824.1499	98.1639
3825.1143	98.2034
3826.0784	98.2404
3827.0425	98.2707
3828.0068	98.2888
3828.9712	98.2899
3829.9353	98.2732
3830.8994	98.2428
3831.8638	98.2051
3832.8281	98.1665
3833.7922	98.1303
3834.7563	98.0981
3835.7207	98.0716
3836.6851	98.0555
3837.6492	98.0559
3838.6133	98.0744
3839.5776	98.1054
3840.5420	98.139
3841.5061	98.1687
3842.4702	98.194
3843.4346	98.2183
3844.3989	98.2436
3845.3630	98.2669
3846.3271	98.28
3847.2915	98.2736
3848.2559	98.2403
3849.2200	98.1769
3850.1841	98.087
3851.1484	97.9864
3852.1128	97.9101
3853.0769	97.8974
3854.0410	97.9502
3855.0054	98.0271
3855.9697	98.0902
3856.9338	98.1268
3857.8979	98.1383
3858.8623	98.1308
3859.8267	98.1123
3860.7908	98.0936
3861.7549	98.0875
3862.7192	98.1026
3863.6836	98.1358
3864.6477	98.172
3865.6118	98.1939
3866.5762	98.1914
3867.5405	98.166
3868.5046	98.1298
3869.4688	98.1006
3870.4331	98.0937
3871.3975	98.1132
3872.3616	98.1513
3873.3257	98.1946
3874.2900	98.2312
3875.2544	98.2539
3876.2185	98.2588
3877.1826	98.2448
3878.1470	98.2137
3879.1113	98.1718
3880.0754	98.1291
3881.0396	98.0967
3882.0039	98.0819
3882.9683	98.0864
3883.9324	98.1078
3884.8965	98.1408
3885.8608	98.1784
3886.8252	98.2127
3887.7893	98.238
3888.7534	98.2516
3889.7178	98.2541
3890.6821	98.2501
3891.6462	98.2465
3892.6104	98.2492
3893.5747	98.2593
3894.5391	98.2725
3895.5032	98.2816
3896.4673	98.2785
3897.4316	98.2558
3898.3960	98.2092
3899.3601	98.1416
3900.3242	98.0657
3901.2886	98.0009
3902.2529	97.9675
3903.2170	97.9778
3904.1812	98.0304
3905.1455	98.1108
3906.1099	98.1989
3907.0740	98.2784
3908.0381	98.3405
3909.0024	98.3822
3909.9668	98.4036
3910.9309	98.4053
3911.8950	98.3871
3912.8594	98.3487
3913.8237	98.2933
3914.7878	98.2307
3915.7520	98.1788
3916.7163	98.1573
3917.6807	98.1762
3918.6448	98.2264
3919.6089	98.2841
3920.5732	98.3255
3921.5376	98.3383
3922.5017	98.3255
3923.4658	98.3009
3924.4302	98.2798
3925.3945	98.2696
3926.3586	98.2671
3927.3228	98.2632
3928.2871	98.2516
3929.2515	98.2324
3930.2156	98.2127
3931.1797	98.2025
3932.1440	98.2088
3933.1084	98.2321
3934.0725	98.267
3935.0366	98.3052
3936.0010	98.339
3936.9653	98.3621
3937.9294	98.3711
3938.8936	98.3656
3939.8579	98.3492
3940.8223	98.3276
3941.7864	98.3069
3942.7505	98.2908
3943.7148	98.2801
3944.6792	98.274
3945.6433	98.272
3946.6074	98.2746
3947.5718	98.282
3948.5361	98.2934
3949.5002	98.3064
3950.4644	98.3191
3951.4287	98.3308
3952.3931	98.3428
3953.3572	98.3561
3954.3213	98.3698
3955.2856	98.3798
3956.2500	98.3808
3957.2141	98.3688
3958.1782	98.3445
3959.1426	98.3135
3960.1069	98.2851
3961.0710	98.2683
3962.0352	98.2681
3962.9995	98.2828
3963.9639	98.3057
3964.9280	98.3278
3965.8921	98.3418
3966.8564	98.3445
3967.8208	98.3369
3968.7849	98.323
3969.7490	98.308
3970.7134	98.2966
3971.6777	98.2918
3972.6418	98.2943
3973.6060	98.3022
3974.5703	98.3117
3975.5347	98.3191
3976.4988	98.3218
3977.4629	98.3201
3978.4272	98.3161
3979.3916	98.3126
3980.3557	98.3107
3981.3198	98.3103
3982.2842	98.3107
3983.2485	98.312
3984.2126	98.3153
3985.1768	98.322
3986.1411	98.3312
3987.1055	98.3397
3988.0696	98.3435
3989.0337	98.3406
3989.9980	98.333
3990.9624	98.327
3991.9265	98.329
3992.8906	98.3415
3993.8550	98.3603
3994.8193	98.3758
3995.7834	98.3784
3996.7476	98.3639
3997.7119	98.3373
3998.6763	98.3105
3999.6404	98.2969
4000.6045	98.3036
4001.5688	98.3286
4002.5332	98.3621
4003.4973	98.3921
4004.4614	98.4101
4005.4258	98.4141
4006.3901	98.4061
4007.3542	98.3891
4008.3184	98.3652
4009.2827	98.3362
4010.2471	98.3059
4011.2112	98.2811
4012.1753	98.2693
4013.1396	98.2741
4014.1040	98.2923
4015.0681	98.3138
4016.0322	98.3269
4016.9966	98.3241
4017.9609	98.3063
4018.9250	98.2818
4019.8892	98.262
4020.8535	98.2549
4021.8179	98.2625
4022.7820	98.2804
4023.7461	98.3008
4024.7104	98.3161
4025.6748	98.3213
4026.6389	98.3148
4027.6030	98.2985
4028.5674	98.2773
4029.5317	98.2582
4030.4958	98.2484
4031.4600	98.2529
4032.4243	98.2717
4033.3887	98.2991
4034.3528	98.326
4035.3169	98.3437
4036.2813	98.3477
4037.2456	98.3388
4038.2097	98.3218
4039.1738	98.3023
4040.1382	98.2845
4041.1025	98.2717
4042.0667	98.266
4043.0308	98.2688
4043.9951	98.2794
4044.9595	98.2941
4045.9236	98.3072
4046.8877	98.3138
4047.8521	98.313
4048.8164	98.3081
4049.7808	98.3046
4050.7446	98.3062
4051.7090	98.313
4052.6733	98.3219
4053.6377	98.3299
4054.6016	98.3353
4055.5659	98.3385
4056.5303	98.3403
4057.4946	98.3405
4058.4585	98.3386
4059.4229	98.3349
4060.3872	98.3311
4061.3516	98.3287
4062.3154	98.3272
4063.2798	98.3228
4064.2441	98.3104
4065.2085	98.2877
4066.1724	98.2584
4067.1367	98.2313
4068.1011	98.217
4069.0654	98.2214
4070.0293	98.2424
4070.9937	98.2706
4071.9580	98.2939
4072.9224	98.3041
4073.8862	98.3003
4074.8506	98.2883
4075.8149	98.2759
4076.7793	98.2688
4077.7432	98.2677
4078.7075	98.2701
4079.6719	98.2734
4080.6362	98.2773
4081.6001	98.2832
4082.5645	98.2918
4083.5288	98.3016
4084.4932	98.3087
4085.4570	98.3099
4086.4214	98.3049
4087.3857	98.2967
4088.3501	98.289
4089.3140	98.2838
4090.2783	98.2796
4091.2427	98.2736
4092.2070	98.264
4093.1709	98.2521
4094.1353	98.2407
4095.0996	98.2325
4096.0640	98.2282
4097.0278	98.2266
4097.9922	98.2273
4098.9565	98.231
4099.9209	98.2396
4100.8848	98.2536
4101.8491	98.27
4102.8135	98.2837
4103.7778	98.2901
4104.7417	98.2886
4105.7061	98.283
4106.6704	98.2795
4107.6348	98.2822
4108.5986	98.2908
4109.5630	98.3014
4110.5273	98.3092
4111.4917	98.3116
4112.4556	98.3094
4113.4199	98.3048
4114.3843	98.2994
4115.3486	98.2933
4116.3125	98.2859
4117.2769	98.2777
4118.2412	98.2711
4119.2056	98.2694
4120.1694	98.2746
4121.1338	98.2863
4122.0981	98.3012
4123.0625	98.3146
4124.0264	98.3225
4124.9907	98.3227
4125.9551	98.3161
4126.9194	98.3053
4127.8833	98.2946
4128.8477	98.2877
4129.8120	98.2867
4130.7764	98.2911
4131.7402	98.2974
4132.7046	98.3012
4133.6689	98.2989
4134.6333	98.2906
4135.5972	98.2802
4136.5615	98.2747
4137.5259	98.2798
4138.4902	98.2972
4139.4541	98.3221
4140.4185	98.3453
4141.3828	98.3563
4142.3472	98.3487
4143.3110	98.3222
4144.2754	98.2828
4145.2397	98.2407
4146.2041	98.2062
4147.1680	98.1875
4148.1323	98.1891
4149.0967	98.2104
4150.0610	98.2463
4151.0249	98.2871
4151.9893	98.3216
4152.9536	98.3402
4153.9180	98.3383
4154.8818	98.3181
4155.8462	98.2871
4156.8105	98.2543
4157.7749	98.2274
4158.7388	98.2101
4159.7031	98.2024
4160.6675	98.2023
4161.6318	98.207
4162.5957	98.2138
4163.5601	98.2202
4164.5244	98.2247
4165.4888	98.2268
4166.4526	98.2276
4167.4170	98.2287
4168.3813	98.232
4169.3457	98.238
4170.3096	98.2456
4171.2739	98.253
4172.2383	98.2589
4173.2026	98.2635
4174.1665	98.2688
4175.1309	98.277
4176.0952	98.2886
4177.0596	98.3019
4178.0234	98.3128
4178.9878	98.3173
4179.9521	98.3129
4180.9165	98.3004
4181.8804	98.2829
4182.8447	98.2645
4183.8091	98.2486
4184.7734	98.2379
4185.7373	98.2339
4186.7017	98.2368
4187.6660	98.2449
4188.6304	98.255
4189.5942	98.2631
4190.5586	98.2663
4191.5229	98.264
4192.4873	98.2579
4193.4512	98.2503
4194.4155	98.2432
4195.3799	98.2377
4196.3442	98.2351
4197.3081	98.2372
4198.2725	98.2449
4199.2368	98.2568
4200.2012	98.2685
4201.1650	98.274
4202.1294	98.27
4203.0938	98.2577
4204.0581	98.2423
4205.0220	98.2297
4205.9863	98.222
4206.9507	98.2176
4207.9150	98.213
4208.8789	98.2064
4209.8433	98.1993
4210.8076	98.1951
4211.7720	98.1966
4212.7358	98.2038
4213.7002	98.2147
4214.6646	98.2261
4215.6289	98.2355
4216.5928	98.2416
4217.5571	98.2439
4218.5215	98.2425
4219.4858	98.2385
4220.4497	98.2335
4221.4141	98.2288
4222.3784	98.2245
4223.3428	98.2195
4224.3066	98.2124
4225.2710	98.2035
4226.2354	98.195
4227.1997	98.1903
4228.1636	98.1914
4229.1279	98.1981
4230.0923	98.2081
4231.0566	98.2181
4232.0205	98.2255
4232.9849	98.2295
4233.9492	98.2301
4234.9136	98.2278
4235.8774	98.2227
4236.8418	98.2154
4237.8062	98.207
4238.7705	98.1991
4239.7344	98.1931
4240.6987	98.1888
4241.6631	98.1842
4242.6274	98.1757
4243.5913	98.1611
4244.5557	98.1416
4245.5200	98.1224
4246.4844	98.1114
4247.4482	98.1145
4248.4126	98.1325
4249.3770	98.1598
4250.3413	98.1866
4251.3052	98.2042
4252.2695	98.209
4253.2339	98.2038
4254.1982	98.1957
4255.1621	98.1917
4256.1265	98.1955
4257.0908	98.2061
4258.0552	98.2186
4259.0190	98.2269
4259.9834	98.2267
4260.9478	98.2176
4261.9121	98.2034
4262.8760	98.1905
4263.8403	98.1846
4264.8047	98.1876
4265.7690	98.1963
4266.7329	98.2044
4267.6973	98.2053
4268.6616	98.1968
4269.6260	98.1817
4270.5898	98.167
4271.5542	98.1603
4272.5186	98.1668
4273.4829	98.1867
4274.4468	98.2157
4275.4111	98.2459
4276.3755	98.269
4277.3398	98.2792
4278.3037	98.2764
4279.2681	98.2655
4280.2324	98.2549
4281.1968	98.2505
4282.1606	98.2528
4283.1250	98.2555
4284.0894	98.2498
4285.0537	98.2305
4286.0176	98.2008
4286.9819	98.1711
4287.9463	98.1539
4288.9106	98.1564
4289.8745	98.1763
4290.8389	98.2032
4291.8032	98.225
4292.7676	98.2343
4293.7314	98.2313
4294.6958	98.2218
4295.6602	98.2124
4296.6245	98.206
4297.5884	98.2003
4298.5527	98.1906
4299.5171	98.173
4300.4814	98.1479
4301.4453	98.1201
4302.4097	98.0965
4303.3740	98.0832
4304.3384	98.0828
4305.3022	98.0933
4306.2666	98.1094
4307.2310	98.1253
4308.1953	98.1367
4309.1592	98.1434
4310.1235	98.1478
4311.0879	98.1526
4312.0522	98.1588
4313.0161	98.1641
4313.9805	98.1646
4314.9448	98.1574
4315.9092	98.1438
4316.8730	98.1296
4317.8374	98.1223
4318.8018	98.1268
4319.7661	98.1428
4320.7300	98.1639
4321.6943	98.1813
4322.6587	98.1886
4323.6230	98.1852
4324.5869	98.1761
4325.5513	98.1684
4326.5156	98.1669
4327.4800	98.1713
4328.4438	98.1772
4329.4082	98.1796
4330.3726	98.176
4331.3369	98.1678
4332.3008	98.1578
4333.2651	98.1487
4334.2295	98.1408
4335.1938	98.1339
4336.1577	98.1281
4337.1221	98.125
4338.0864	98.1257
4339.0508	98.1292
4340.0146	98.1321
4340.9790	98.1307
4341.9434	98.1231
4342.9077	98.1117
4343.8716	98.1009
4344.8359	98.0953
4345.8003	98.0961
4346.7646	98.1012
4347.7285	98.1071
4348.6929	98.1105
4349.6572	98.1104
4350.6216	98.1067
4351.5854	98.0995
4352.5498	98.0889
4353.5142	98.0757
4354.4785	98.0619
4355.4424	98.0511
4356.4067	98.0465
4357.3711	98.0497
4358.3354	98.0598
4359.2993	98.0742
4360.2637	98.0895
4361.2280	98.1026
4362.1924	98.1105
4363.1563	98.1104
4364.1206	98.1012
4365.0850	98.0849
4366.0493	98.0678
4367.0132	98.0575
4367.9775	98.0587
4368.9419	98.0694
4369.9063	98.0815
4370.8701	98.0854
4371.8345	98.0776
4372.7988	98.0638
4373.7632	98.0561
4374.7271	98.0655
4375.6914	98.0941
4376.6558	98.1339
4377.6201	98.1709
4378.5840	98.1931
4379.5483	98.196
4380.5127	98.1828
4381.4771	98.1609
4382.4409	98.1374
4383.4053	98.1171
4384.3696	98.1027
4385.3340	98.0954
4386.2979	98.0954
4387.2622	98.1006
4388.2266	98.1067
4389.1909	98.1091
4390.1548	98.1054
4391.1191	98.0976
4392.0835	98.0921
4393.0479	98.096
4394.0117	98.1135
4394.9761	98.1419
4395.9404	98.1729
4396.9048	98.1956
4397.8687	98.203
4398.8330	98.1963
4399.7974	98.1845
4400.7617	98.1797
4401.7256	98.1887
4402.6899	98.2088
4403.6543	98.228
4404.6187	98.2324
4405.5825	98.2146
4406.5469	98.1792
4407.5112	98.1406
4408.4756	98.1155
4409.4395	98.1143
4410.4038	98.1366
4411.3682	98.1723
4412.3325	98.2068
4413.2964	98.2282
4414.2607	98.2311
4415.2251	98.2181
4416.1895	98.1976
4417.1533	98.18
4418.1177	98.1735
4419.0820	98.1813
4420.0464	98.2006
4421.0103	98.2249
4421.9746	98.2465
4422.9390	98.2598
4423.9033	98.2629
4424.8672	98.257
4425.8315	98.2452
4426.7959	98.2308
4427.7603	98.2159
4428.7241	98.2008
4429.6885	98.1851
4430.6528	98.1683
4431.6172	98.1518
4432.5811	98.1388
4433.5454	98.1323
4434.5098	98.1331
4435.4741	98.1378
4436.4380	98.1399
4437.4023	98.1343
4438.3667	98.1206
4439.3311	98.1049
4440.2949	98.0968
4441.2593	98.1037
4442.2236	98.1267
4443.1880	98.1594
4444.1519	98.1916
4445.1162	98.2137
4446.0806	98.2211
4447.0449	98.2149
4448.0088	98.2005
4448.9731	98.1849
4449.9375	98.1744
4450.9019	98.1722
4451.8657	98.1783
4452.8301	98.1892
4453.7944	98.1999
4454.7588	98.206
4455.7227	98.206
4456.6870	98.2012
4457.6514	98.1949
4458.6157	98.1891
4459.5796	98.1833
4460.5439	98.1749
4461.5083	98.1614
4462.4727	98.1437
4463.4365	98.1276
4464.4009	98.1217
4465.3652	98.1332
4466.3296	98.1628
4467.2935	98.2029
4468.2578	98.2401
4469.2222	98.2614
4470.1865	98.2608
4471.1504	98.2425
4472.1147	98.2179
4473.0791	98.1984
4474.0435	98.1892
4475.0073	98.1872
4475.9717	98.1845
4476.9360	98.1758
4477.9004	98.1628
4478.8643	98.1535
4479.8286	98.1566
4480.7930	98.1749
4481.7573	98.2022
4482.7212	98.2259
4483.6855	98.2339
4484.6499	98.2211
4485.6143	98.192
4486.5781	98.1585
4487.5425	98.1335
4488.5068	98.125
4489.4712	98.133
4490.4351	98.1507
4491.3994	98.1686
4492.3638	98.1798
4493.3281	98.1825
4494.2920	98.1796
4495.2563	98.1756
4496.2207	98.1728
4497.1851	98.17
4498.1489	98.1636
4499.1133	98.1509
4500.0776	98.1323
4501.0420	98.1119
4502.0059	98.0959
4502.9702	98.0899
4503.9346	98.097
4504.8989	98.1174
4505.8628	98.1478
4506.8271	98.1817
4507.7915	98.2109
4508.7559	98.2272
4509.7197	98.2265
4510.6841	98.2102
4511.6484	98.1852
4512.6128	98.1611
4513.5767	98.1451
4514.5410	98.1399
4515.5054	98.1435
4516.4697	98.1524
4517.4336	98.1635
4518.3979	98.1756
4519.3623	98.1883
4520.3267	98.2002
4521.2905	98.2087
4522.2549	98.2113
4523.2192	98.207
4524.1836	98.1969
4525.1475	98.1834
4526.1118	98.1692
4527.0762	98.1558
4528.0405	98.1436
4529.0044	98.132
4529.9688	98.1201
4530.9331	98.1079
4531.8975	98.0968
4532.8613	98.0906
4533.8257	98.0937
4534.7900	98.1086
4535.7544	98.1332
4536.7183	98.16
4537.6826	98.1786
4538.6470	98.1802
4539.6113	98.1628
4540.5752	98.1322
4541.5396	98.0991
4542.5039	98.0749
4543.4683	98.0661
4544.4321	98.0728
4545.3965	98.09
4546.3608	98.1112
4547.3252	98.1315
4548.2891	98.1491
4549.2534	98.165
4550.2178	98.1806
4551.1821	98.1959
4552.1460	98.2078
4553.1104	98.2117
4554.0747	98.2037
4555.0391	98.1831
4556.0029	98.1542
4556.9673	98.1248
4557.9316	98.1034
4558.8960	98.0958
4559.8599	98.1025
4560.8242	98.1193
4561.7886	98.1394
4562.7529	98.1557
4563.7168	98.164
4564.6812	98.1634
4565.6455	98.1558
4566.6099	98.1441
4567.5737	98.1312
4568.5381	98.1193
4569.5024	98.1109
4570.4668	98.1092
4571.4307	98.1173
4572.3950	98.136
4573.3594	98.1612
4574.3237	98.1834
4575.2876	98.1917
4576.2520	98.1798
4577.2163	98.1506
4578.1807	98.1154
4579.1445	98.0873
4580.1089	98.0726
4581.0732	98.0672
4582.0376	98.0607
4583.0015	98.0453
4583.9658	98.0232
4584.9302	98.0059
4585.8945	98.0053
4586.8584	98.0242
4587.8228	98.0523
4588.7871	98.0721
4589.7515	98.0713
4590.7153	98.0512
4591.6797	98.0266
4592.6440	98.0161
4593.6084	98.0304
4594.5723	98.0655
4595.5366	98.1068
4596.5010	98.138
4597.4653	98.1509
4598.4292	98.1483
4599.3936	98.1405
4600.3579	98.1379
4601.3223	98.1457
4602.2861	98.163
4603.2505	98.1842
4604.2148	98.2026
4605.1792	98.2125
4606.1431	98.2109
4607.1074	98.1983
4608.0718	98.1785
4609.0361	98.1579
4610.0000	98.1427
4610.9644	98.1358
4611.9287	98.1361
4612.8931	98.1394
4613.8569	98.1417
4614.8213	98.142
4615.7856	98.1413
4616.7500	98.1406
4617.7139	98.1384
4618.6782	98.131
4619.6426	98.1155
4620.6069	98.094
4621.5708	98.0733
4622.5352	98.0625
4623.4995	98.0671
4624.4639	98.0857
4625.4277	98.1103
4626.3921	98.1309
4627.3564	98.1394
4628.3208	98.1333
4629.2847	98.115
4630.2490	98.0899
4631.2134	98.0642
4632.1777	98.0432
4633.1416	98.0316
4634.1060	98.0334
4635.0703	98.0509
4636.0347	98.0836
4636.9985	98.1268
4637.9629	98.1714
4638.9272	98.2067
4639.8916	98.224
4640.8555	98.2203
4641.8198	98.1995
4642.7842	98.1706
4643.7485	98.1431
4644.7124	98.1228
4645.6768	98.1105
4646.6411	98.1039
4647.6055	98.1006
4648.5693	98.0999
4649.5337	98.1022
4650.4980	98.1074
4651.4624	98.1135
4652.4263	98.1181
4653.3906	98.1199
4654.3550	98.1196
4655.3193	98.1192
4656.2832	98.12
4657.2476	98.1217
4658.2119	98.1235
4659.1763	98.1263
4660.1401	98.1324
4661.1045	98.1443
4662.0688	98.1609
4663.0332	98.1762
4663.9971	98.1821
4664.9614	98.1724
4665.9258	98.1479
4666.8901	98.1166
4667.8540	98.0892
4668.8184	98.0743
4669.7827	98.0742
4670.7471	98.0849
4671.7109	98.1001
4672.6753	98.1138
4673.6396	98.122
4674.6040	98.1218
4675.5679	98.1104
4676.5322	98.0864
4677.4966	98.0519
4678.4609	98.0143
4679.4248	97.9848
4680.3892	97.9738
4681.3535	97.9849
4682.3179	98.0128
4683.2817	98.0452
4684.2461	98.069
4685.2104	98.0769
4686.1748	98.0697
4687.1387	98.055
4688.1030	98.0429
4689.0674	98.0412
4690.0317	98.0526
4690.9956	98.0745
4691.9600	98.0999
4692.9243	98.1201
4693.8887	98.1273
4694.8525	98.1186
4695.8169	98.0978
4696.7813	98.0747
4697.7456	98.0615
4698.7095	98.0662
4699.6738	98.0886
4700.6382	98.1199
4701.6025	98.1466
4702.5664	98.1571
4703.5308	98.1466
4704.4951	98.119
4705.4595	98.0844
4706.4233	98.0547
4707.3877	98.0392
4708.3521	98.042
4709.3164	98.061
4710.2803	98.0883
4711.2446	98.1133
4712.2090	98.1259
4713.1733	98.1203
4714.1372	98.0982
4715.1016	98.0676
4716.0659	98.0397
4717.0303	98.0238
4717.9941	98.0242
4718.9585	98.0398
4719.9229	98.0658
4720.8872	98.0962
4721.8511	98.1253
4722.8154	98.1477
4723.7798	98.1586
4724.7441	98.1549
4725.7080	98.1374
4726.6724	98.1111
4727.6367	98.0832
4728.6011	98.0589
4729.5649	98.039
4730.5293	98.0206
4731.4937	98.0014
4732.4580	97.9835
4733.4219	97.9734
4734.3862	97.9776
4735.3506	97.9964
4736.3149	98.0222
4737.2788	98.0428
4738.2432	98.0496
4739.2075	98.0432
4740.1719	98.0334
4741.1357	98.0319
4742.1001	98.0439
4743.0645	98.0649
4744.0288	98.0836
4744.9927	98.0908
4745.9570	98.0851
4746.9214	98.0743
4747.8857	98.069
4748.8496	98.075
4749.8140	98.0895
4750.7783	98.1024
4751.7427	98.1032
4752.7065	98.0873
4753.6709	98.059
4754.6353	98.0287
4755.5996	98.008
4756.5635	98.0044
4757.5278	98.0185
4758.4922	98.0452
4759.4565	98.0763
4760.4204	98.1035
4761.3848	98.1203
4762.3491	98.1228
4763.3135	98.1104
4764.2773	98.0861
4765.2417	98.0566
4766.2061	98.031
4767.1704	98.0181
4768.1343	98.023
4769.0986	98.0447
4770.0630	98.0769
4771.0273	98.1104
4771.9912	98.1374
4772.9556	98.1543
4773.9199	98.1616
4774.8843	98.1619
4775.8481	98.1574
4776.8125	98.1483
4777.7769	98.1332
4778.7412	98.1108
4779.7051	98.0812
4780.6694	98.0473
4781.6338	98.0152
4782.5981	97.9932
4783.5620	97.9897
4784.5264	98.0092
4785.4907	98.0487
4786.4551	98.0964
4787.4189	98.1361
4788.3833	98.1536
4789.3477	98.1448
4790.3120	98.1174
4791.2759	98.0865
4792.2402	98.0666
4793.2046	98.0636
4794.1689	98.0732
4795.1328	98.0852
4796.0972	98.0905
4797.0615	98.0857
4798.0259	98.0742
4798.9897	98.0621
4799.9541	98.0544
4800.9185	98.0528
4801.8828	98.0568
4802.8467	98.0652
4803.8110	98.0773
4804.7754	98.0929
4805.7397	98.1108
4806.7036	98.1284
4807.6680	98.1414
4808.6323	98.1456
4809.5967	98.1385
4810.5605	98.1205
4811.5249	98.0955
4812.4893	98.0693
4813.4536	98.048
4814.4175	98.036
4815.3818	98.0349
4816.3462	98.0442
4817.3105	98.0621
4818.2744	98.0862
4819.2388	98.1127
4820.2031	98.1362
4821.1675	98.1493
4822.1313	98.145
4823.0957	98.1202
4824.0601	98.0782
4825.0244	98.0282
4825.9883	97.9829
4826.9526	97.9528
4827.9170	97.9433
4828.8813	97.9528
4829.8452	97.9749
4830.8096	98.0004
4831.7739	98.0214
4832.7383	98.0331
4833.7021	98.0361
4834.6665	98.0358
4835.6309	98.0393
4836.5952	98.0503
4837.5591	98.066
4838.5234	98.0765
4839.4878	98.0706
4840.4521	98.0437
4841.4160	98.0034
4842.3804	97.9667
4843.3447	97.9515
4844.3091	97.9667
4845.2729	98.0067
4846.2373	98.0558
4847.2017	98.0969
4848.1660	98.1201
4849.1299	98.1259
4850.0942	98.1206
4851.0586	98.1114
4852.0229	98.1018
4852.9868	98.0929
4853.9512	98.0853
4854.9155	98.0809
4855.8799	98.0829
4856.8438	98.093
4857.8081	98.1107
4858.7725	98.1328
4859.7368	98.1547
4860.7007	98.1716
4861.6650	98.1793
4862.6294	98.1761
4863.5938	98.1632
4864.5576	98.1452
4865.5220	98.1283
4866.4863	98.1171
4867.4507	98.1119
4868.4146	98.1086
4869.3789	98.1011
4870.3433	98.0858
4871.3076	98.0634
4872.2715	98.0394
4873.2358	98.0203
4874.2002	98.0113
4875.1646	98.0139
4876.1284	98.0267
4877.0928	98.0464
4878.0571	98.0695
4879.0215	98.0933
4879.9854	98.1153
4880.9497	98.1337
4881.9141	98.1465
4882.8784	98.1521
4883.8423	98.1496
4884.8066	98.1397
4885.7710	98.1245
4886.7354	98.107
4887.6992	98.0901
4888.6636	98.0755
4889.6279	98.0646
4890.5923	98.0589
4891.5562	98.0609
4892.5205	98.0732
4893.4849	98.0969
4894.4492	98.1301
4895.4131	98.1675
4896.3774	98.2019
4897.3418	98.2255
4898.3062	98.2317
4899.2700	98.2171
4900.2344	98.183
4901.1987	98.1369
4902.1631	98.091
4903.1270	98.058
4904.0913	98.0462
4905.0557	98.0546
4906.0200	98.0746
4906.9839	98.0947
4907.9482	98.107
4908.9126	98.1101
4909.8770	98.1074
4910.8408	98.1026
4911.8052	98.0964
4912.7695	98.0878
4913.7339	98.0764
4914.6978	98.065
4915.6621	98.0584
4916.6265	98.0598
4917.5908	98.0688
4918.5547	98.0816
4919.5190	98.0938
4920.4834	98.1027
4921.4478	98.107
4922.4116	98.1065
4923.3760	98.1012
4924.3403	98.0927
4925.3047	98.0851
4926.2686	98.0847
4927.2329	98.0966
4928.1973	98.1215
4929.1616	98.1538
4930.1255	98.1844
4931.0898	98.2045
4932.0542	98.21
4933.0186	98.2017
4933.9824	98.1832
4934.9468	98.158
4935.9111	98.1273
4936.8755	98.0908
4937.8394	98.0493
4938.8037	98.0071
4939.7681	97.9724
4940.7324	97.9542
4941.6963	97.9582
4942.6606	97.9819
4943.6250	98.015
4944.5894	98.0432
4945.5532	98.0555
4946.5176	98.0497
4947.4819	98.0332
4948.4463	98.0179
4949.4102	98.0134
4950.3745	98.0222
4951.3389	98.0409
4952.3032	98.0633
4953.2671	98.0851
4954.2314	98.1049
4955.1958	98.1225
4956.1602	98.1366
4957.1240	98.1442
4958.0884	98.1421
4959.0527	98.1293
4960.0171	98.1079
4960.9810	98.0829
4961.9453	98.0605
4962.9097	98.0464
4963.8740	98.0438
4964.8379	98.0528
4965.8022	98.0692
4966.7666	98.0862
4967.7310	98.0966
4968.6948	98.096
4969.6592	98.0842
4970.6235	98.0654
4971.5879	98.046
4972.5518	98.0319
4973.5161	98.0277
4974.4805	98.035
4975.4448	98.0523
4976.4087	98.0754
4977.3730	98.0985
4978.3374	98.1167
4979.3018	98.1284
4980.2656	98.1347
4981.2300	98.1374
4982.1943	98.1351
4983.1587	98.123
4984.1226	98.0958
4985.0869	98.0536
4986.0513	98.0054
4987.0156	97.9671
4987.9795	97.9544
4988.9438	97.9742
4989.9082	98.0209
4990.8726	98.079
4991.8364	98.131
4992.8008	98.1638
4993.7651	98.1721
4994.7295	98.1572
4995.6934	98.1231
4996.6577	98.0759
4997.6221	98.0241
4998.5864	97.9797
4999.5503	97.9563
5000.5146	97.9645
5001.4790	98.0054
5002.4434	98.067
5003.4072	98.1273
5004.3716	98.1634
5005.3359	98.162
5006.3003	98.1263
5007.2642	98.0744
5008.2285	98.0292
5009.1929	98.0067
5010.1572	98.0079
5011.1211	98.0205
5012.0854	98.0277
5013.0498	98.0195
5014.0142	97.9982
5014.9780	97.9767
5015.9424	97.9693
5016.9067	97.9829
5017.8711	98.0134
5018.8350	98.0478
5019.7993	98.0717
5020.7637	98.0767
5021.7280	98.0632
5022.6919	98.0407
5023.6563	98.0217
5024.6206	98.017
5025.5850	98.0294
5026.5488	98.0532
5027.5132	98.0762
5028.4775	98.0866
5029.4419	98.0797
5030.4058	98.0611
5031.3701	98.0438
5032.3345	98.0405
5033.2988	98.0562
5034.2627	98.0851
5035.2271	98.1146
5036.1914	98.1335
5037.1558	98.1378
5038.1196	98.1314
5039.0840	98.1217
5040.0483	98.1131
5041.0127	98.1044
5041.9766	98.0915
5042.9409	98.0715
5043.9053	98.0465
5044.8696	98.0222
5045.8335	98.0045
5046.7979	97.9962
5047.7622	97.9957
5048.7266	97.9996
5049.6904	98.0056
5050.6548	98.0138
5051.6191	98.0255
5052.5835	98.0406
5053.5474	98.0558
5054.5117	98.0655
5055.4761	98.0652
5056.4404	98.0545
5057.4043	98.0384
5058.3687	98.0255
5059.3330	98.023
5060.2974	98.0343
5061.2612	98.0567
5062.2256	98.0845
5063.1899	98.1113
5064.1543	98.1324
5065.1182	98.1439
5066.0825	98.1418
5067.0469	98.1221
5068.0112	98.0832
5068.9751	98.0298
5069.9395	97.9754
5070.9038	97.9403
5071.8682	97.9434
5072.8320	97.9948
5073.7964	98.0882
5074.7607	98.2024
5075.7251	98.3072
5076.6890	98.3745
5077.6533	98.3887
5078.6177	98.3514
5079.5820	98.2802
5080.5459	98.2012
5081.5103	98.1393
5082.4746	98.1099
5083.4390	98.1145
5084.4028	98.1417
5085.3672	98.1724
5086.3315	98.188
5087.2959	98.1792
5088.2598	98.1494
5089.2241	98.1134
5090.1885	98.089
5091.1528	98.0876
5092.1167	98.1073
5093.0811	98.1351
5094.0454	98.1548
5095.0098	98.157
5095.9736	98.144
5096.9380	98.1263
5097.9023	98.1138
5098.8667	98.1094
5099.8306	98.1092
5100.7949	98.1078
5101.7593	98.1037
5102.7236	98.1005
5103.6875	98.1022
5104.6519	98.1088
5105.6162	98.1147
5106.5806	98.1138
5107.5444	98.1042
5108.5088	98.0897
5109.4731	98.0771
5110.4375	98.0705
5111.4014	98.0696
5112.3657	98.0715
5113.3301	98.0744
5114.2944	98.0792
5115.2583	98.0872
5116.2227	98.0977
5117.1870	98.1067
5118.1514	98.1106
5119.1152	98.1096
5120.0796	98.1092
5121.0439	98.1168
5122.0083	98.1353
5122.9722	98.1601
5123.9365	98.1802
5124.9009	98.1844
5125.8652	98.1683
5126.8291	98.1369
5127.7935	98.1025
5128.7578	98.0782
5129.7222	98.0721
5130.6860	98.0829
5131.6504	98.1018
5132.6147	98.1169
5133.5791	98.1203
5134.5430	98.1118
5135.5073	98.099
5136.4717	98.0916
5137.4360	98.0951
5138.3999	98.1061
5139.3643	98.1144
5140.3286	98.1096
5141.2930	98.0884
5142.2568	98.0575
5143.2212	98.0295
5144.1855	98.0153
5145.1499	98.0183
5146.1138	98.0341
5147.0781	98.0548
5148.0425	98.0742
5149.0068	98.0893
5149.9707	98.0988
5150.9351	98.1007
5151.8994	98.0921
5152.8638	98.0715
5153.8276	98.0427
5154.7920	98.0148
5155.7563	97.9993
5156.7207	98.0044
5157.6846	98.031
5158.6489	98.072
5159.6133	98.1151
5160.5776	98.1475
5161.5415	98.1599
5162.5059	98.1494
5163.4702	98.1205
5164.4346	98.0827
5165.3984	98.0464
5166.3628	98.0181
5167.3271	97.9985
5168.2915	97.9842
5169.2554	97.9713
5170.2197	97.9591
5171.1841	97.9505
5172.1484	97.9495
5173.1123	97.9576
5174.0767	97.9725
5175.0410	97.9893
5176.0054	98.0039
5176.9692	98.014
5177.9336	98.0195
5178.8979	98.0198
5179.8623	98.0133
5180.8262	97.9983
5181.7905	97.9753
5182.7549	97.9487
5183.7192	97.9261
5184.6831	97.9157
5185.6475	97.9225
5186.6118	97.9462
5187.5762	97.9814
5188.5400	98.0195
5189.5044	98.0511
5190.4688	98.069
5191.4331	98.0704
5192.3970	98.0583
5193.3613	98.0397
5194.3257	98.024
5195.2900	98.0188
5196.2539	98.0281
5197.2183	98.0507
5198.1826	98.0811
5199.1470	98.1114
5200.1108	98.1327
5201.0752	98.1364
5202.0396	98.116
5203.0039	98.0704
5203.9678	98.007
5204.9321	97.9439
5205.8965	97.9038
5206.8608	97.9039
5207.8247	97.9453
5208.7891	98.0126
5209.7534	98.0826
5210.7178	98.1346
5211.6816	98.1569
5212.6460	98.1478
5213.6104	98.1134
5214.5747	98.0646
5215.5386	98.0146
5216.5029	97.9763
5217.4673	97.9595
5218.4316	97.9671
5219.3955	97.9937
5220.3599	98.0276
5221.3242	98.0559
5222.2886	98.0709
5223.2524	98.0733
5224.2168	98.0712
5225.1812	98.0736
5226.1455	98.0821
5227.1094	98.088
5228.0737	98.0783
5229.0381	98.0453
5230.0024	97.9947
5230.9663	97.9461
5231.9307	97.924
5232.8950	97.9435
5233.8594	98.0002
5234.8232	98.0714
5235.7876	98.1284
5236.7520	98.151
5237.7163	98.136
5238.6802	98.096
5239.6445	98.0493
5240.6089	98.0102
5241.5732	97.9837
5242.5371	97.9682
5243.5015	97.9612
5244.4658	97.9626
5245.4302	97.9739
5246.3940	97.994
5247.3584	98.0167
5248.3228	98.0335
5249.2871	98.0381
5250.2510	98.0295
5251.2153	98.0104
5252.1797	97.9847
5253.1440	97.9563
5254.1079	97.9302
5255.0723	97.9136
5256.0366	97.9138
5257.0010	97.9338
5257.9648	97.9675
5258.9292	98.0003
5259.8936	98.0129
5260.8579	97.9903
5261.8218	97.9319
5262.7861	97.8555
5263.7505	97.7907
5264.7148	97.7624
5265.6787	97.7786
5266.6431	97.8286
5267.6074	97.891
5268.5718	97.9451
5269.5356	97.9796
5270.5000	97.9952
5271.4644	98.0011
5272.4287	98.0066
5273.3926	98.0157
5274.3569	98.0264
5275.3213	98.0343
5276.2856	98.0382
5277.2495	98.0417
5278.2139	98.0513
5279.1782	98.0706
5280.1426	98.0961
5281.1064	98.1167
5282.0708	98.118
5283.0352	98.0892
5283.9995	98.0295
5284.9634	97.9498
5285.9277	97.8696
5286.8921	97.8109
5287.8564	97.7904
5288.8203	97.8137
5289.7847	97.8724
5290.7490	97.9469
5291.7134	98.0148
5292.6772	98.0591
5293.6416	98.073
5294.6060	98.0582
5295.5703	98.0222
5296.5342	97.975
5297.4985	97.9268
5298.4629	97.886
5299.4272	97.8573
5300.3911	97.8414
5301.3555	97.8372
5302.3198	97.8456
5303.2842	97.8708
5304.2480	97.9182
5305.2124	97.9873
5306.1768	98.0667
5307.1411	98.1353
5308.1050	98.172
5309.0693	98.1686
5310.0337	98.1344
5310.9980	98.0896
5311.9619	98.0529
5312.9263	98.0314
5313.8906	98.0184
5314.8550	98.0007
5315.8188	97.9708
5316.7832	97.934
5317.7476	97.9069
5318.7119	97.9059
5319.6758	97.9354
5320.6401	97.9821
5321.6045	98.0207
5322.5688	98.0267
5323.5327	97.9902
5324.4971	97.9221
5325.4614	97.8515
5326.4258	97.8112
5327.3896	97.8209
5328.3540	97.8778
5329.3184	97.9596
5330.2827	98.038
5331.2466	98.0913
5332.2109	98.1103
5333.1753	98.0966
5334.1396	98.0574
5335.1035	98.0013
5336.0679	97.9381
5337.0322	97.88
5337.9966	97.8402
5338.9604	97.8287
5339.9248	97.8484
5340.8892	97.8935
5341.8535	97.9515
5342.8174	98.0056
5343.7817	98.0385
5344.7461	98.0408
5345.7104	98.0165
5346.6743	97.9825
5347.6387	97.9585
5348.6030	97.9574
5349.5674	97.9796
5350.5313	98.0129
5351.4956	98.0373
5352.4600	98.0341
5353.4243	97.9968
5354.3882	97.9348
5355.3525	97.8667
5356.3169	97.809
5357.2813	97.7702
5358.2451	97.7524
5359.2095	97.7567
5360.1738	97.787
5361.1382	97.8473
5362.1021	97.9345
5363.0664	98.0314
5364.0308	98.1075
5364.9951	98.1315
5365.9590	98.0887
5366.9233	97.9921
5367.8877	97.8796
5368.8521	97.7966
5369.8159	97.7739
5370.7803	97.8135
5371.7446	97.8891
5372.7090	97.96
5373.6729	97.9913
5374.6372	97.9688
5375.6016	97.9023
5376.5659	97.8153
5377.5298	97.7298
5378.4941	97.6579
5379.4585	97.6049
5380.4229	97.5766
5381.3867	97.5838
5382.3511	97.638
5383.3154	97.7419
5384.2798	97.8811
5385.2437	98.0243
5386.2080	98.1361
5387.1724	98.1931
5388.1367	98.1905
5389.1006	98.1388
5390.0649	98.0567
5391.0293	97.9672
5391.9937	97.8964
5392.9575	97.8679
5393.9219	97.8933
5394.8862	97.9624
5395.8506	98.0451
5396.8145	98.1056
5397.7788	98.1193
5398.7432	98.0844
5399.7075	98.0211
5400.6714	97.9602
5401.6357	97.9266
5402.6001	97.9251
5403.5645	97.9392
5404.5283	97.9438
5405.4927	97.9223
5406.4570	97.8783
5407.4214	97.8337
5408.3853	97.8166
5409.3496	97.8468
5410.3140	97.9251
5411.2783	98.0325
5412.2422	98.1391
5413.2065	98.2168
5414.1709	98.2491
5415.1353	98.2341
5416.0991	98.1827
5417.0635	98.114
5418.0278	98.051
5418.9922	98.0135
5419.9561	98.0107
5420.9204	98.0355
5421.8848	98.067
5422.8491	98.0828
5423.8130	98.0737
5424.7773	98.0489
5425.7417	98.029
5426.7061	98.0285
5427.6699	98.0408
5428.6343	98.0367
5429.5986	97.984
5430.5630	97.8721
5431.5269	97.7218
5432.4912	97.5773
5433.4556	97.4866
5434.4199	97.4794
5435.3838	97.5539
5436.3481	97.6796
5437.3125	97.8134
5438.2769	97.9147
5439.2407	97.9552
5440.2051	97.9245
5441.1694	97.8339
5442.1338	97.7164
5443.0977	97.6143
5444.0620	97.5609
5445.0264	97.5658
5445.9907	97.614
5446.9546	97.6774
5447.9189	97.7342
5448.8833	97.7823
5449.8477	97.8369
5450.8115	97.9152
5451.7759	98.019
5452.7402	98.1284
5453.7046	98.2094
5454.6685	98.2314
5455.6328	98.184
5456.5972	98.0834
5457.5615	97.9665
5458.5254	97.876
5459.4897	97.8435
5460.4541	97.8781
5461.4185	97.964
5462.3823	98.0686
5463.3467	98.1582
5464.3110	98.212
5465.2754	98.2277
5466.2393	98.2183
5467.2036	98.2017
5468.1680	98.1892
5469.1323	98.179
5470.0962	98.1586
5471.0605	98.1147
5472.0249	98.0444
5472.9893	97.9627
5473.9531	97.9007
5474.9175	97.8906
5475.8818	97.9436
5476.8462	98.0353
5477.8101	98.1146
5478.7744	98.1291
5479.7388	98.0529
5480.7031	97.9043
5481.6670	97.7413
5482.6313	97.6357
5483.5957	97.6355
5484.5601	97.7403
5485.5239	97.9038
5486.4883	98.0613
5487.4526	98.1645
5488.4170	98.2016
5489.3809	98.1928
5490.3452	98.168
5491.3096	98.1459
5492.2739	98.1284
5493.2378	98.1104
5494.2021	98.0921
5495.1665	98.0825
5496.1309	98.0917
5497.0947	98.1202
5498.0591	98.1546
5499.0234	98.1721
5499.9878	98.1524
5500.9517	98.0884
5501.9160	97.9908
5502.8804	97.884
5503.8447	97.7965
5504.8086	97.7505
5505.7729	97.7548
5506.7373	97.8035
5507.7017	97.8791
5508.6655	97.9586
5509.6299	98.0201
5510.5942	98.0467
5511.5586	98.0306
5512.5225	97.9763
5513.4868	97.9025
5514.4512	97.8392
5515.4155	97.8155
5516.3794	97.8447
5517.3438	97.9157
5518.3081	97.9981
5519.2725	98.059
5520.2363	98.0817
5521.2007	98.0723
5522.1650	98.0508
5523.1294	98.0332
5524.0933	98.0211
5525.0576	98.0051
5526.0220	97.9801
5526.9863	97.9564
5527.9502	97.9546
5528.9146	97.9879
5529.8789	98.0457
5530.8433	98.096
5531.8071	98.1075
5532.7715	98.077
5533.7358	98.0367
5534.7002	98.0324
5535.6641	98.0853
5536.6284	98.1675
5537.5928	98.2126
5538.5571	98.1605
5539.5210	98.0034
5540.4854	97.8011
5541.4497	97.6503
5542.4141	97.63
5543.3779	97.7578
5544.3423	97.9819
5545.3066	98.2097
5546.2710	98.355
5547.2349	98.3749
5548.1992	98.2784
5549.1636	98.1106
5550.1279	97.9284
5551.0918	97.7815
5552.0562	97.7026
5553.0205	97.7031
5553.9849	97.772
5554.9487	97.8813
5555.9131	97.9984
5556.8774	98.1005
5557.8418	98.1836
5558.8057	98.2582
5559.7700	98.3349
5560.7344	98.4104
5561.6987	98.4645
5562.6626	98.471
5563.6270	98.416
5564.5913	98.3107
5565.5557	98.1885
5566.5195	98.0878
5567.4839	98.0299
5568.4482	98.0055
5569.4126	97.9779
5570.3765	97.9053
5571.3408	97.7689
5572.3052	97.5927
5573.2695	97.4392
5574.2334	97.3811
5575.1978	97.4619
5576.1621	97.6682
5577.1265	97.9305
5578.0903	98.152
5579.0547	98.2529
5580.0190	98.2043
5580.9834	98.0349
5581.9473	97.8099
5582.9116	97.5979
5583.8760	97.4454
5584.8403	97.3684
5585.8042	97.358
5586.7686	97.3937
5587.7329	97.4538
5588.6973	97.5226
5589.6611	97.5932
5590.6255	97.6669
5591.5898	97.7505
5592.5542	97.8491
5593.5181	97.9598
5594.4824	98.0692
5595.4468	98.1588
5596.4111	98.2155
5597.3750	98.2403
5598.3394	98.2476
5599.3037	98.2549
5600.2681	98.2699
5601.2319	98.2835
5602.1963	98.2758
5603.1606	98.2305
5604.1250	98.148
5605.0889	98.0475
5606.0532	97.9564
5607.0176	97.8952
5607.9819	97.8686
5608.9458	97.8673
5609.9102	97.8783
5610.8745	97.8934
5611.8389	97.912
5612.8027	97.9362
5613.7671	97.9641
5614.7314	97.9874
5615.6958	97.9938
5616.6597	97.9729
5617.6240	97.924
5618.5884	97.8614
5619.5527	97.8153
5620.5166	97.8229
5621.4810	97.91
5622.4453	98.07
5623.4097	98.2556
5624.3735	98.3932
5625.3379	98.4214
5626.3022	98.3295
5627.2666	98.1703
5628.2305	98.0309
5629.1948	97.9788
5630.1592	98.0194
5631.1235	98.0953
5632.0874	98.1263
5633.0518	98.0623
5634.0161	97.9119
5634.9805	97.7289
5635.9443	97.5724
5636.9087	97.4737
5637.8730	97.4333
5638.8374	97.4395
5639.8013	97.4855
5640.7656	97.5688
5641.7300	97.6756
5642.6943	97.7731
5643.6582	97.8228
5644.6226	97.811
5645.5869	97.7701
5646.5513	97.7689
5647.5151	97.8724
5648.4795	98.0939
5649.4438	98.3744
5650.4082	98.6028
5651.3721	98.6719
5652.3364	98.5367
5653.3008	98.241
5654.2651	97.8967
5655.2290	97.6284
5656.1934	97.518
5657.1577	97.5767
5658.1221	97.7548
5659.0859	97.976
5660.0503	98.1743
5661.0146	98.311
5661.9790	98.3704
5662.9429	98.3456
5663.9072	98.2348
5664.8716	98.0508
5665.8359	97.8332
5666.7998	97.6455
5667.7642	97.5526
5668.7285	97.5906
5669.6929	97.7504
5670.6567	97.985
5671.6211	98.2332
5672.5854	98.444
5673.5498	98.5859
5674.5137	98.6466
5675.4780	98.6307
5676.4424	98.5616
5677.4067	98.4811
5678.3706	98.4369
5679.3350	98.462
5680.2993	98.5586
5681.2637	98.7017
5682.2275	98.8601
5683.1919	99.0159
5684.1563	99.1619
5685.1206	99.2805
5686.0845	99.3272
5687.0488	99.246
5688.0132	99.0133
5688.9775	98.675
5689.9414	98.3404
5690.9058	98.1265
5691.8701	98.0925
5692.8345	98.2101
5693.7983	98.3924
5694.7627	98.5542
5695.7271	98.6571
5696.6914	98.7054
5697.6553	98.7065
5698.6196	98.6403
5699.5840	98.4716
5700.5483	98.1938
5701.5122	97.8616
5702.4766	97.5756
5703.4409	97.427
5704.4053	97.4431
5705.3691	97.5748
5706.3335	97.7313
5707.2979	97.8371
5708.2622	97.8685
5709.2261	97.8463
5710.1904	97.801
5711.1548	97.7429
5712.1191	97.6607
5713.0830	97.5431
5714.0474	97.4013
5715.0117	97.2738
5715.9761	97.2113
5716.9399	97.2518
5717.9043	97.3999
5718.8687	97.6196
5719.8330	97.8433
5720.7969	97.9976
5721.7612	98.036
5722.7256	97.9625
5723.6899	97.8314
5724.6538	97.7182
5725.6182	97.6777
5726.5825	97.7129
5727.5469	97.7769
5728.5107	97.8059
5729.4751	97.7635
5730.4395	97.6651
5731.4038	97.5679
5732.3677	97.5344
5733.3320	97.5923
5734.2964	97.7159
5735.2607	97.837
5736.2246	97.8803
5737.1890	97.8071
5738.1533	97.644
5739.1177	97.4803
5740.0815	97.4273
5741.0459	97.5582
5742.0103	97.8592
5742.9746	98.2249
5743.9385	98.5077
5744.9028	98.6017
5745.8672	98.5073
5746.8315	98.3306
5747.7954	98.2112
5748.7598	98.2316
5749.7241	98.3707
5750.6885	98.5328
5751.6523	98.6261
5752.6167	98.6314
5753.5811	98.609
5754.5454	98.6384
5755.5093	98.7422
5756.4736	98.8547
5757.4380	98.8585
5758.4023	98.6641
5759.3662	98.2755
5760.3306	97.798
5761.2949	97.3879
5762.2593	97.1776
5763.2231	97.219
5764.1875	97.4672
5765.1519	97.8065
5766.1162	98.1033
5767.0801	98.2632
5768.0444	98.2633
5769.0088	98.146
5769.9731	97.9833
5770.9370	97.835
5771.9014	97.7269
5772.8657	97.6563
5773.8301	97.615
5774.7939	97.6037
5775.7583	97.6249
5776.7227	97.6627
5777.6870	97.6757
5778.6509	97.6196
5779.6152	97.4862
5780.5796	97.3255
5781.5439	97.2219
5782.5078	97.2357
5783.4722	97.3535
5784.4365	97.4914
5785.4009	97.5519
5786.3647	97.494
5787.3291	97.3621
5788.2935	97.2514
5789.2578	97.2393
5790.2217	97.3381
5791.1860	97.5034
5792.1504	97.6838
5793.1147	97.8658
5794.0786	98.0712
5795.0430	98.3101
5796.0073	98.5345
5796.9717	98.6399
5797.9355	98.5247
5798.8999	98.1711
5799.8643	97.6822
5800.8286	97.2404
5801.7925	97.0095
5802.7568	97.0441
5803.7212	97.2681
5804.6855	97.5338
5805.6494	97.7224
5806.6138	97.8181
5807.5781	97.902
5808.5425	98.0741
5809.5063	98.3609
5810.4707	98.6763
5811.4351	98.8642
5812.3994	98.7962
5813.3633	98.4562
5814.3276	97.9513
5815.2920	97.4495
5816.2563	97.0968
5817.2202	96.9658
5818.1846	97.0549
5819.1489	97.3176
5820.1133	97.6897
5821.0771	98.0981
5822.0415	98.458
5823.0059	98.6841
5823.9702	98.7243
5824.9341	98.5976
5825.8984	98.3997
5826.8628	98.2585
5827.8271	98.2582
5828.7910	98.3805
5829.7554	98.5079
5830.7197	98.4947
5831.6841	98.2625
5832.6479	97.8587
5833.6123	97.4377
5834.5767	97.1754
5835.5410	97.1699
5836.5049	97.3882
5837.4692	97.6914
5838.4336	97.9195
5839.3979	97.9828
5840.3618	97.9014
5841.3262	97.7714
5842.2905	97.6917
5843.2549	97.7076
5844.2188	97.8059
5845.1831	97.9496
5846.1475	98.114
5847.1118	98.2939
5848.0757	98.4807
5849.0400	98.6385
5850.0044	98.7068
5850.9688	98.6325
5851.9326	98.4039
5852.8970	98.058
5853.8613	97.6575
5854.8257	97.261
5855.7896	96.9145
5856.7539	96.6655
5857.7183	96.5748
5858.6826	96.6974
5859.6465	97.0353
5860.6108	97.5007
5861.5752	97.9333
5862.5396	98.1773
5863.5034	98.1745
5864.4678	98.0055
5865.4321	97.848
5866.3965	97.8752
5867.3604	98.1543
5868.3247	98.6046
5869.2891	99.0398
5870.2534	99.2684
5871.2173	99.1931
5872.1816	98.8548
5873.1460	98.4051
5874.1104	98.0261
5875.0742	97.8422
5876.0386	97.8662
5877.0029	98.0017
5877.9673	98.1003
5878.9312	98.0436
5879.8955	97.8102
5880.8599	97.4853
5881.8242	97.2065
5882.7881	97.0784
5883.7524	97.1144
5884.7168	97.2408
5885.6812	97.3603
5886.6450	97.4274
5887.6094	97.4826
5888.5737	97.6183
5889.5381	97.9015
5890.5020	98.3102
5891.4663	98.7312
5892.4307	99.0218
5893.3950	99.0943
5894.3589	98.9631
5895.3232	98.7214
5896.2876	98.4704
5897.2520	98.2559
5898.2158	98.0588
5899.1802	97.8426
5900.1445	97.6133
5901.1089	97.4361
5902.0728	97.3936
5903.0371	97.5184
5904.0015	97.7553
5904.9658	97.989
5905.9297	98.1183
5906.8940	98.1186
5907.8584	98.0389
5908.8228	97.9396
5909.7866	97.8289
5910.7510	97.6582
5911.7153	97.3815
5912.6797	97.0296
5913.6436	96.7277
5914.6079	96.6327
5915.5723	96.8361
5916.5366	97.3012
5917.5005	97.8753
5918.4648	98.365
5919.4292	98.625
5920.3936	98.6052
5921.3574	98.3412
5922.3218	97.9158
5923.2861	97.4283
5924.2505	96.9842
5925.2144	96.6855
5926.1787	96.6067
5927.1431	96.7647
5928.1074	97.1068
5929.0713	97.5349
5930.0356	97.9536
5931.0000	98.3035
5931.9644	98.557
5932.9282	98.6914
5933.8926	98.6727
5934.8569	98.4732
5935.8213	98.1054
5936.7852	97.6343
5937.7495	97.152
5938.7139	96.7377
5939.6782	96.4371
5940.6421	96.2693
5941.6064	96.2392
5942.5708	96.3313
5943.5352	96.4908
5944.4990	96.6255
5945.4634	96.6537
5946.4277	96.5738
5947.3921	96.493
5948.3560	96.5737
5949.3203	96.9236
5950.2847	97.5066
5951.2490	98.1434
5952.2134	98.6139
5953.1772	98.7935
5954.1416	98.7219
5955.1060	98.5488
5956.0703	98.4089
5957.0342	98.3311
5957.9985	98.2522
5958.9629	98.1082
5959.9272	97.9157
5960.8911	97.7707
5961.8555	97.7709
5962.8198	97.9339
5963.7842	98.183
5964.7480	98.4061
5965.7124	98.5357
5966.6768	98.584
5967.6411	98.6118
5968.6050	98.6651
5969.5693	98.734
5970.5337	98.7634
5971.4980	98.6992
5972.4619	98.5328
5973.4263	98.3102
5974.3906	98.1053
5975.3550	97.9818
5976.3188	97.9729
5977.2832	98.084
5978.2476	98.3071
5979.2119	98.6286
5980.1758	99.0228
5981.1401	99.4378
5982.1045	99.7886
5983.0688	99.9716
5984.0327	99.9002
5984.9971	99.5495
5985.9614	98.9841
5986.9258	98.3505
5987.8896	97.8257
5988.8540	97.5418
5989.8184	97.528
5990.7827	97.7
5991.7466	97.9053
5992.7109	98.003
5993.6753	97.9379
5994.6396	97.77
5995.6035	97.6333
5996.5679	97.6439
5997.5322	97.8093
5998.4966	98.0018
5999.4604	98.0254
6000.4248	97.7442
6001.3892	97.1911
6002.3535	96.5714
6003.3174	96.1517
6004.2817	96.1107
6005.2461	96.4498
6006.2104	97.0127
6007.1743	97.587
6008.1387	98.0166
6009.1030	98.2481
6010.0674	98.2927
6011.0313	98.1569
6011.9956	97.8199
6012.9600	97.2804
6013.9243	96.6242
6014.8882	96.0363
6015.8525	95.7304
6016.8169	95.8414
6017.7813	96.3575
6018.7451	97.1383
6019.7095	98.0015
6020.6738	98.8074
6021.6382	99.4818
6022.6021	99.977
6023.5664	100.23
6024.5308	100.182
6025.4951	99.8451
6026.4590	99.3582
6027.4233	98.9487
6028.3877	98.8159
6029.3521	99.0114
6030.3159	99.3958
6031.2803	99.7038
6032.2446	99.6908
6033.2090	99.2756
6034.1729	98.5829
6035.1372	97.8642
6036.1016	97.3662
6037.0659	97.2307
6038.0298	97.4588
6038.9941	97.9261
6039.9585	98.4314
6040.9229	98.7669
6041.8867	98.7939
6042.8511	98.5002
6043.8154	98.0113
6044.7798	97.5438
6045.7437	97.3119
6046.7080	97.4284
6047.6724	97.845
6048.6367	98.3651
6049.6006	98.7245
6050.5649	98.7022
6051.5293	98.2112
6052.4937	97.336
6053.4575	96.3119
6054.4219	95.4535
6055.3862	95.05
6056.3506	95.2526
6057.3145	95.9937
6058.2788	96.9818
6059.2432	97.8036
6060.2075	98.1145
6061.1714	97.8224
6062.1357	97.1372
6063.1001	96.4435
6064.0645	96.0865
6065.0283	96.2045
6065.9927	96.6867
6066.9570	97.2604
6067.9214	97.6563
6068.8853	97.7525
6069.8496	97.614
6070.8140	97.4202
6071.7783	97.3501
6072.7422	97.4922
6073.7065	97.8088
6074.6709	98.1544
6075.6353	98.3358
6076.5991	98.1924
6077.5635	97.6696
6078.5278	96.8565
6079.4922	95.9683
6080.4561	95.273
6081.4204	94.9851
6082.3848	95.1725
6083.3491	95.7255
6084.3130	96.4099
6085.2773	96.9826
6086.2417	97.3067
6087.2061	97.3939
6088.1699	97.3532
6089.1343	97.2957
6090.0986	97.2696
6091.0630	97.2677
6092.0269	97.287
6092.9912	97.3811
6093.9556	97.6501
6094.9199	98.1628
6095.8843	98.8657
6096.8481	99.553
6097.8125	99.94
6098.7769	99.8129
6099.7412	99.1671
6100.7051	98.2434
6101.6694	97.4342
6102.6338	97.1097
6103.5981	97.4495
6104.5620	98.3517
6105.5264	99.4608
6106.4907	100.315
6107.4551	100.562
6108.4189	100.135
6109.3833	99.2721
6110.3477	98.3689
6111.3120	97.7685
6112.2759	97.6249
6113.2402	97.8824
6114.2046	98.3526
6115.1689	98.8304
6116.1328	99.1853
6117.0972	99.3843
6118.0615	99.4513
6119.0259	99.4121
6119.9897	99.2728
6120.9541	99.0371
6121.9185	98.7376
6122.8828	98.4432
6123.8467	98.2319
6124.8110	98.1452
6125.7754	98.1573
6126.7397	98.1878
6127.7036	98.1587
6128.6680	98.0602
6129.6323	97.9744
6130.5967	98.0284
6131.5605	98.2967
6132.5249	98.7125
6133.4893	99.0542
6134.4536	99.0421
6135.4175	98.506
6136.3818	97.5138
6137.3462	96.3604
6138.3105	95.4213
6139.2744	94.9783
6140.2388	95.1152
6141.2031	95.7193
6142.1675	96.5615
6143.1313	97.4008
6144.0957	98.0625
6145.0601	98.467
6146.0244	98.624
6146.9883	98.611
6147.9526	98.5367
6148.9170	98.4831
6149.8813	98.4458
6150.8452	98.3184
6151.8096	97.9514
6152.7739	97.2641
6153.7383	96.3348
6154.7021	95.3923
6155.6665	94.7006
6156.6309	94.4172
6157.5952	94.5168
6158.5591	94.8206
6159.5234	95.0984
6160.4878	95.1783
6161.4521	95.0065
6162.4160	94.6444
6163.3804	94.238
6164.3447	93.9877
6165.3091	94.1095
6166.2729	94.7574
6167.2373	95.9168
6168.2017	97.3314
6169.1660	98.5569
6170.1299	99.1629
6171.0942	98.9792
6172.0586	98.2027
6173.0229	97.2731
6173.9868	96.6153
6174.9512	96.4346
6175.9155	96.6755
6176.8799	97.1251
6177.8438	97.5652
6178.8081	97.868
6179.7725	97.9949
6180.7368	97.938
6181.7007	97.6816
6182.6650	97.2271
6183.6294	96.6521
6184.5938	96.1351
6185.5576	95.9059
6186.5220	96.1473
6187.4863	96.9043
6188.4507	98.0489
6189.4146	99.3165
6190.3789	100.404
6191.3433	101.09
6192.3076	101.319
6193.2715	101.191
6194.2358	100.869
6195.2002	100.466
6196.1646	99.9986
6197.1284	99.4336
6198.0928	98.7925
6199.0571	98.214
6200.0215	97.9116
6200.9854	98.0437
6201.9497	98.5839
6202.9141	99.2864
6203.8784	99.7874
6204.8423	99.7964
6205.8066	99.2608
6206.7710	98.387
6207.7354	97.5024
6208.6992	96.8724
6209.6636	96.5994
6210.6279	96.6495
6211.5923	96.9479
6212.5562	97.4503
6213.5205	98.1312
6214.4849	98.9085
6215.4492	99.5857
6216.4131	99.8917
6217.3774	99.6276
6218.3418	98.8286
6219.3062	97.8063
6220.2700	97.0178
6221.2344	96.8418
6222.1987	97.3978
6223.1631	98.4992
6224.1270	99.7663
6225.0913	100.831
6226.0557	101.493
6227.0200	101.735
6227.9839	101.611
6228.9482	101.167
6229.9126	100.445
6230.8770	99.5634
6231.8408	98.7363
6232.8052	98.1933
6233.7695	98.0372
6234.7339	98.162
6235.6978	98.2977
6236.6621	98.1625
6237.6265	97.633
6238.5908	96.8106
6239.5547	95.9438
6240.5190	95.2933
6241.4834	95.0502
6242.4478	95.3215
6243.4116	96.1205
6244.3760	97.321
6245.3403	98.6237
6246.3047	99.6233
6247.2686	100.002
6248.2329	99.7295
6249.1973	99.1049
6250.1616	98.5761
6251.1255	98.469
6252.0898	98.805
6253.0542	99.3252
6254.0186	99.7047
6254.9824	99.7956
6255.9468	99.6965
6256.9111	99.6093
6257.8755	99.6427
6258.8394	99.7396
6259.8037	99.7636
6260.7681	99.6437
6261.7324	99.4441
6262.6963	99.304
6263.6606	99.3158
6264.6250	99.4564
6265.5894	99.618
6266.5532	99.6924
6267.5176	99.6314
6268.4819	99.442
6269.4463	99.1487
6270.4102	98.7798
6271.3745	98.3867
6272.3389	98.0572
6273.3032	97.8869
6274.2671	97.9204
6275.2314	98.1172
6276.1958	98.3852
6277.1602	98.6562
6278.1240	98.9258
6279.0884	99.2132
6280.0527	99.4857
6281.0171	99.64
6281.9810	99.5842
6282.9453	99.355
6283.9097	99.1489
6284.8740	99.2064
6285.8379	99.6208
6286.8022	100.215
6287.7666	100.592
6288.7310	100.365
6289.6948	99.4328
6290.6592	98.0907
6291.6235	96.8639
6292.5879	96.2034
6293.5518	96.2745
6294.5161	96.9553
6295.4805	97.9856
6296.4448	99.1398
6297.4087	100.311
6298.3730	101.468
6299.3374	102.536
6300.3018	103.326
6301.2656	103.583
6302.2300	103.131
6303.1943	102.015
6304.1587	100.524
6305.1226	99.0773
6306.0869	98.0301
6307.0513	97.5359
6308.0156	97.5235
6308.9795	97.7908
6309.9438	98.1419
6310.9082	98.4805
6311.8726	98.8142
6312.8364	99.1826
6313.8008	99.5692
6314.7651	99.8529
6315.7295	99.8359
6316.6934	99.3355
6317.6577	98.2969
6318.6221	96.8573
6319.5864	95.3179
6320.5503	94.0379
6321.5146	93.3149
6322.4790	93.3001
6323.4434	93.9578
6324.4072	95.0701
6325.3716	96.3057
6326.3359	97.3501
6327.3003	98.0367
6328.2642	98.3991
6329.2285	98.6211
6330.1929	98.9184
6331.1572	99.4019
6332.1211	99.9798
6333.0854	100.374
6334.0498	100.282
6335.0142	99.5874
6335.9780	98.4805
6336.9424	97.3898
6337.9067	96.7843
6338.8711	96.9488
6339.8350	97.8319
6340.7993	99.05
6341.7637	100.074
6342.7280	100.521
6343.6919	100.351
6344.6563	99.8471
6345.6206	99.3999
6346.5850	99.2966
6347.5488	99.6158
6348.5132	100.255
6349.4775	101.027
6350.4419	101.742
6351.4058	102.239
6352.3701	102.367
6353.3345	101.992
6354.2988	101.054
6355.2627	99.634
6356.2271	97.9854
6357.1914	96.4698
6358.1558	95.4353
6359.1196	95.102
6360.0840	95.5019
6361.0483	96.4896
6362.0127	97.8151
6362.9766	99.2189
6363.9409	100.493
6364.9053	101.474
6365.8696	101.993
6366.8335	101.881
6367.7979	101.062
6368.7622	99.6819
6369.7266	98.1411
6370.6904	96.9497
6371.6548	96.508
6372.6191	96.923
6373.5835	97.9468
6374.5474	99.0774
6375.5117	99.8125
6376.4761	99.9135
6377.4404	99.4863
6378.4043	98.8343
6379.3687	98.2421
6380.3330	97.8527
6381.2974	97.6752
6382.2612	97.6679
6383.2256	97.8179
6384.1899	98.163
6385.1543	98.7551
6386.1182	99.596
6387.0825	100.58
6388.0469	101.483
6389.0112	102.026
6389.9751	102.021
6390.9395	101.49
6391.9038	100.66
6392.8682	99.8147
6393.8320	99.1088
6394.7964	98.479
6395.7607	97.7114
6396.7251	96.6504
6397.6890	95.4013
6398.6533	94.3391
6399.6177	93.9057
6400.5820	94.3521
6401.5459	95.5978
6402.5103	97.2676
6403.4746	98.8729
6404.4390	100.029
6405.4028	100.575
6406.3672	100.546
6407.3315	100.077
6408.2959	99.3409
6409.2598	98.5544
6410.2241	97.9615
6411.1885	97.771
6412.1528	98.0575
6413.1167	98.7017
6414.0811	99.4336
6415.0454	99.9756
6416.0098	100.185
6416.9736	100.09
6417.9380	99.8201
6418.9023	99.5111
6419.8667	99.2546
6420.8306	99.0866
6421.7949	98.9923
6422.7593	98.9199
6423.7236	98.8184
6424.6875	98.6937
6425.6519	98.6428
6426.6162	98.8175
6427.5806	99.3158
6428.5444	100.072
6429.5088	100.849
6430.4731	101.381
6431.4375	101.568
6432.4014	101.547
6433.3657	101.564
6434.3301	101.75
6435.2944	101.983
6436.2583	101.954
6437.2227	101.388
6438.1870	100.261
6439.1514	98.8646
6440.1152	97.6654
6441.0796	97.0778
6442.0439	97.2869
6443.0083	98.1917
6443.9722	99.4589
6444.9365	100.648
6445.9009	101.364
6446.8652	101.398
6447.8291	100.807
6448.7935	99.8862
6449.7578	99.0257
6450.7222	98.5084
6451.6860	98.3579
6452.6504	98.3449
6453.6147	98.1822
6454.5791	97.7756
6455.5430	97.3185
6456.5073	97.1574
6457.4717	97.5405
6458.4360	98.4175
6459.3999	99.4223
6460.3643	100.08
6461.3286	100.123
6462.2930	99.6619
6463.2568	99.0862
6464.2212	98.7937
6465.1855	98.9526
6466.1499	99.4314
6467.1138	99.911
6468.0781	100.088
6469.0425	99.8356
6470.0068	99.229
6470.9707	98.4614
6471.9351	97.728
6472.8994	97.1595
6473.8638	96.8255
6474.8276	96.7711
6475.7920	97.0325
6476.7563	97.6134
6477.7207	98.4415
6478.6846	99.3491
6479.6489	100.104
6480.6133	100.487
6481.5776	100.373
6482.5415	99.78
6483.5059	98.8474
6484.4702	97.781
6485.4346	96.7954
6486.3984	96.0847
6487.3628	95.8071
6488.3271	96.0518
6489.2915	96.7785
6490.2554	97.7658
6491.2197	98.6347
6492.1841	98.9869
6493.1484	98.6031
6494.1123	97.5765
6495.0767	96.2795
6496.0410	95.1772
6497.0054	94.6007
6497.9692	94.6131
6498.9336	95.0441
6499.8979	95.6546
6500.8623	96.2999

##### Extended Information
[Comments]
Sample name
Comment
Username
Division
Organization	Uni Wrzburg

[Detailed Information]
Creation date	10/20/2025 2:31 PM

Data array type	Linear data array
Horizontal axis	Wavenumber [cm-1]
Vertical axis	%T
Start	1999.82 cm-1
End	6500.86 cm-1
Data interval	0.964233 cm-1
Data points	4669    

[Measurement Information]
Model name	FT/IR-4100typeA
Serial No.	C210961016

Measurement date	10/20/2025 2:31 PM

Light source	Standard
Detector	TGS
Accumulation	25
Resolution	4 cm-1
Zero filling	On
Apodization	Cosine
Gain	Auto (8)
Aperture	Auto (7.1 mm)
Scan speed	Auto (2 mm/sec)
Filter	Auto (30000 Hz)

