TITLE	
DATA TYPE	INFRARED SPECTRUM
ORIGIN	JASCO
OWNER	
DATE	25/10/20
TIME	15:36:44
SPECTROMETER/DATA SYSTEM	
LOCALE	1033
RESOLUTION	
DELTAX	0.964233
XUNITS	1/CM
YUNITS	TRANSMITTANCE
FIRSTX	  649.8934
LASTX	 4000.6047
NPOINTS	    3476
FIRSTY	    85.36781
MAXY	    99.37236
MINY	    67.77869
XYDATA
649.8934	85.3678
650.8576	85.4158
651.8218	85.5055
652.7861	85.5663
653.7503	85.5605
654.7145	85.502
655.6788	85.446
656.6430	85.4543
657.6072	85.5605
658.5715	85.7527
659.5357	85.9813
660.4999	86.1861
661.4642	86.3298
662.4284	86.4151
663.3926	86.474
664.3569	86.5422
665.3211	86.6396
666.2853	86.76
667.2496	86.8705
668.2138	86.9329
669.1780	86.9458
670.1423	86.9493
671.1065	86.9802
672.0707	87.0432
673.0350	87.117
673.9992	87.1688
674.9634	87.1711
675.9277	87.1182
676.8919	87.0334
677.8561	86.9592
678.8204	86.9352
679.7846	86.981
680.7488	87.0893
681.7131	87.2279
682.6773	87.3517
683.6415	87.418
684.6058	87.4027
685.5700	87.3083
686.5342	87.1615
687.4985	86.9997
688.4627	86.8539
689.4269	86.7384
690.3912	86.6506
691.3554	86.5812
692.3196	86.5234
693.2839	86.475
694.2481	86.4328
695.2123	86.3873
696.1766	86.3248
697.1408	86.2361
698.1050	86.1246
699.0693	86.0071
700.0335	85.9042
700.9977	85.8292
701.9620	85.7831
702.9262	85.7581
703.8904	85.7437
704.8547	85.7305
705.8189	85.709
706.7831	85.6691
707.7474	85.6054
708.7116	85.5265
709.6758	85.4613
710.6401	85.4516
711.6043	85.5314
712.5685	85.7053
713.5328	85.9389
714.4970	86.172
715.4612	86.3483
716.4255	86.443
717.3897	86.4726
718.3539	86.483
719.3182	86.5252
720.2824	86.6316
721.2466	86.8058
722.2109	87.0283
723.1751	87.2727
724.1393	87.5218
725.1036	87.7747
726.0678	88.0417
727.0320	88.3337
727.9963	88.6517
728.9605	88.9838
729.9247	89.3103
730.8890	89.6148
731.8532	89.892
732.8174	90.1466
733.7817	90.3837
734.7459	90.5996
735.7101	90.7793
736.6744	90.9064
737.6386	90.9769
738.6028	91.007
739.5671	91.0262
740.5313	91.0613
741.4955	91.1206
742.4598	91.1914
743.4240	91.2517
744.3882	91.2879
745.3525	91.3036
746.3167	91.3168
747.2809	91.3461
748.2452	91.3977
749.2094	91.462
750.1736	91.5202
751.1379	91.555
752.1021	91.5584
753.0663	91.5341
754.0306	91.4945
754.9948	91.456
755.9590	91.434
756.9233	91.4362
757.8875	91.4583
758.8517	91.4824
759.8160	91.4835
760.7802	91.442
761.7444	91.3559
762.7087	91.2445
763.6729	91.1395
764.6371	91.0686
765.6014	91.0406
766.5656	91.0416
767.5298	91.0441
768.4941	91.0227
769.4583	90.9657
770.4225	90.877
771.3868	90.7673
772.3510	90.645
773.3152	90.5099
774.2795	90.3556
775.2437	90.1742
776.2079	89.959
777.1722	89.7041
778.1364	89.4008
779.1006	89.0372
780.0649	88.5991
781.0291	88.0745
781.9933	87.4575
782.9576	86.7537
783.9218	85.9884
784.8860	85.2156
785.8503	84.5231
786.8145	84.0221
787.7787	83.8182
788.7430	83.9711
789.7072	84.4612
790.6714	85.1821
791.6357	85.9679
792.5999	86.6461
793.5641	87.0919
794.5284	87.261
795.4926	87.1891
796.4568	86.967
797.4211	86.7081
798.3853	86.5223
799.3495	86.4994
800.3138	86.698
801.2780	87.135
802.2422	87.7811
803.2065	88.5654
804.1707	89.3948
805.1349	90.1802
806.0992	90.8599
807.0634	91.4098
808.0276	91.8371
808.9919	92.1649
809.9561	92.4174
810.9203	92.6115
811.8846	92.7576
812.8488	92.8625
813.8130	92.9337
814.7773	92.9801
815.7415	93.0114
816.7057	93.0348
817.6700	93.0517
818.6342	93.0568
819.5984	93.0393
820.5627	92.9898
821.5269	92.908
822.4911	92.8056
823.4554	92.7029
824.4196	92.6173
825.3839	92.5541
826.3481	92.503
827.3123	92.4463
828.2766	92.3705
829.2408	92.2747
830.2050	92.1699
831.1693	92.0701
832.1335	91.9833
833.0977	91.9078
834.0620	91.8367
835.0262	91.7643
835.9904	91.6906
836.9547	91.6198
837.9189	91.5565
838.8831	91.5012
839.8474	91.4503
840.8116	91.3983
841.7758	91.3407
842.7401	91.2762
843.7043	91.2065
844.6685	91.1345
845.6328	91.0621
846.5970	90.9879
847.5612	90.9072
848.5255	90.8148
849.4897	90.7086
850.4539	90.593
851.4182	90.4788
852.3824	90.3776
853.3466	90.2948
854.3109	90.224
855.2751	90.1495
856.2393	90.0537
857.2036	89.9274
858.1678	89.7763
859.1320	89.6177
860.0963	89.4723
861.0605	89.3529
862.0247	89.2598
862.9890	89.1832
863.9532	89.1119
864.9174	89.0414
865.8817	88.9761
866.8459	88.9241
867.8101	88.8891
868.7744	88.8657
869.7386	88.8432
870.7028	88.8144
871.6671	88.7844
872.6313	88.7712
873.5955	88.797
874.5598	88.8755
875.5240	89.003
876.4882	89.16
877.4525	89.3201
878.4167	89.4618
879.3809	89.5751
880.3452	89.6598
881.3094	89.7194
882.2736	89.753
883.2379	89.7498
884.2021	89.6876
885.1663	89.5361
886.1306	89.266
887.0948	88.8625
888.0590	88.3397
889.0233	87.7474
889.9875	87.1648
890.9517	86.68
891.9160	86.3637
892.8802	86.2495
893.8444	86.3302
894.8087	86.5686
895.7729	86.9169
896.7371	87.3325
897.7014	87.7849
898.6656	88.2527
899.6298	88.7176
900.5941	89.1583
901.5583	89.5506
902.5225	89.8702
903.4868	90.0975
904.4510	90.2206
905.4152	90.2352
906.3795	90.1419
907.3438	89.9418
908.3080	89.6364
909.2722	89.2323
910.2365	88.7513
911.2007	88.2384
912.1649	87.7618
913.1292	87.3991
914.0934	87.2127
915.0576	87.2265
916.0219	87.4151
916.9861	87.7118
917.9503	88.0342
918.9146	88.3129
919.8788	88.5104
920.8430	88.6248
921.8073	88.679
922.7715	88.7049
923.7357	88.7325
924.7000	88.7834
925.6642	88.8705
926.6284	88.9976
927.5927	89.1584
928.5569	89.3369
929.5211	89.5115
930.4854	89.6624
931.4496	89.7798
932.4138	89.8667
933.3781	89.9361
934.3423	90.0015
935.3065	90.0684
936.2708	90.131
937.2350	90.1761
938.1992	90.1911
939.1635	90.1722
940.1277	90.1262
941.0919	90.0662
942.0562	90.0037
943.0204	89.9428
943.9846	89.8798
944.9489	89.8073
945.9131	89.7218
946.8773	89.626
947.8416	89.5268
948.8058	89.428
949.7700	89.3249
950.7343	89.2045
951.6985	89.0521
952.6627	88.861
953.6270	88.6379
954.5912	88.3995
955.5554	88.1631
956.5197	87.9352
957.4839	87.7067
958.4481	87.4562
959.4124	87.1604
960.3766	86.804
961.3408	86.3871
962.3051	85.9237
963.2693	85.4373
964.2335	84.9526
965.1978	84.4891
966.1620	84.0553
967.1262	83.6475
968.0905	83.2503
969.0547	82.842
970.0189	82.4011
970.9832	81.9126
971.9474	81.3716
972.9116	80.7833
973.8759	80.1623
974.8401	79.5318
975.8043	78.9246
976.7686	78.3825
977.7328	77.9524
978.6970	77.6777
979.6613	77.5889
980.6255	77.6954
981.5897	77.9828
982.5540	78.4166
983.5182	78.9485
984.4824	79.5247
985.4467	80.092
986.4109	80.6042
987.3751	81.0261
988.3394	81.3373
989.3036	81.5335
990.2678	81.6232
991.2321	81.6216
992.1963	81.5433
993.1605	81.3974
994.1248	81.1877
995.0890	80.9163
996.0532	80.5882
997.0175	80.2133
997.9817	79.8044
998.9459	79.3722
999.9102	78.9216
1000.8744	78.4505
1001.8386	77.9536
1002.8029	77.4276
1003.7671	76.8752
1004.7313	76.3049
1005.6956	75.7262
1006.6598	75.1443
1007.6240	74.557
1008.5883	73.9556
1009.5525	73.3307
1010.5167	72.6767
1011.4810	71.9951
1012.4452	71.2931
1013.4094	70.5819
1014.3737	69.8774
1015.3379	69.2045
1016.3021	68.6023
1017.2664	68.1246
1018.2306	67.8328
1019.1948	67.7787
1020.1591	67.9866
1021.1233	68.4412
1022.0875	69.0892
1023.0518	69.8534
1024.0160	70.6528
1024.9802	71.4202
1025.9445	72.1111
1026.9087	72.7032
1027.8729	73.193
1028.8372	73.5915
1029.8014	73.9212
1030.7656	74.212
1031.7299	74.4926
1032.6941	74.7804
1033.6583	75.0733
1034.6226	75.3511
1035.5868	75.5879
1036.5510	75.7707
1037.5153	75.9157
1038.4795	76.0712
1039.4437	76.3054
1040.4080	76.683
1041.3722	77.242
1042.3364	77.9815
1043.3007	78.8665
1044.2649	79.843
1045.2291	80.8577
1046.1934	81.8708
1047.1576	82.8592
1048.1218	83.8104
1049.0861	84.7162
1050.0503	85.5681
1051.0145	86.3587
1051.9788	87.0843
1052.9430	87.7471
1053.9072	88.3526
1054.8715	88.9048
1055.8357	89.4029
1056.7999	89.8412
1057.7642	90.2124
1058.7284	90.5116
1059.6926	90.7363
1060.6569	90.8834
1061.6211	90.945
1062.5853	90.9086
1063.5496	90.7647
1064.5138	90.519
1065.4780	90.203
1066.4423	89.8736
1067.4065	89.5994
1068.3707	89.4377
1069.3350	89.4129
1070.2992	89.5069
1071.2634	89.6679
1072.2277	89.8328
1073.1919	89.9535
1074.1561	90.0158
1075.1204	90.0416
1076.0846	90.0732
1077.0488	90.1476
1078.0131	90.2726
1078.9773	90.4161
1079.9415	90.5153
1080.9058	90.5037
1081.8700	90.343
1082.8342	90.0469
1083.7985	89.6837
1084.7627	89.3592
1085.7269	89.1842
1086.6912	89.243
1087.6554	89.5711
1088.6196	90.1506
1089.5839	90.92
1090.5481	91.794
1091.5123	92.6863
1092.4766	93.5272
1093.4408	94.2727
1094.4050	94.9045
1095.3693	95.4231
1096.3335	95.8393
1097.2977	96.1677
1098.2620	96.4234
1099.2262	96.6209
1100.1904	96.7734
1101.1547	96.8919
1102.1189	96.9848
1103.0831	97.0593
1104.0474	97.1227
1105.0116	97.1827
1105.9758	97.2449
1106.9401	97.3091
1107.9043	97.3688
1108.8685	97.4144
1109.8328	97.4389
1110.7970	97.4431
1111.7612	97.4352
1112.7255	97.4262
1113.6897	97.4235
1114.6539	97.4289
1115.6182	97.4398
1116.5824	97.4537
1117.5466	97.4699
1118.5109	97.489
1119.4751	97.5101
1120.4393	97.5283
1121.4036	97.536
1122.3678	97.5263
1123.3320	97.4968
1124.2963	97.4515
1125.2605	97.3995
1126.2247	97.3519
1127.1890	97.3173
1128.1532	97.2987
1129.1174	97.2924
1130.0817	97.2895
1131.0459	97.2802
1132.0101	97.2587
1132.9744	97.2248
1133.9386	97.1839
1134.9028	97.142
1135.8671	97.1016
1136.8313	97.06
1137.7955	97.0109
1138.7598	96.9502
1139.7240	96.8793
1140.6882	96.8056
1141.6525	96.7377
1142.6167	96.6795
1143.5809	96.6251
1144.5452	96.56
1145.5094	96.466
1146.4736	96.3282
1147.4379	96.1378
1148.4021	95.8914
1149.3663	95.5869
1150.3306	95.2223
1151.2948	94.7997
1152.2590	94.3337
1153.2233	93.8589
1154.1875	93.4291
1155.1517	93.1072
1156.1160	92.9472
1157.0802	92.977
1158.0444	93.1894
1159.0087	93.5452
1159.9729	93.9857
1160.9371	94.4503
1161.9014	94.8904
1162.8656	95.2763
1163.8298	95.5968
1164.7941	95.853
1165.7583	96.0517
1166.7225	96.2007
1167.6868	96.3075
1168.6510	96.3798
1169.6152	96.4271
1170.5795	96.4603
1171.5437	96.4888
1172.5079	96.5181
1173.4722	96.5477
1174.4364	96.5725
1175.4006	96.5864
1176.3649	96.5857
1177.3291	96.5705
1178.2933	96.5438
1179.2576	96.509
1180.2218	96.4679
1181.1860	96.4216
1182.1503	96.3708
1183.1145	96.3176
1184.0787	96.2641
1185.0430	96.2121
1186.0072	96.1614
1186.9714	96.1098
1187.9357	96.0542
1188.8999	95.9916
1189.8641	95.9193
1190.8284	95.8342
1191.7926	95.7331
1192.7568	95.6123
1193.7211	95.4688
1194.6853	95.3015
1195.6495	95.1121
1196.6138	94.9036
1197.5780	94.6795
1198.5422	94.4413
1199.5065	94.1884
1200.4707	93.9186
1201.4349	93.6326
1202.3992	93.3371
1203.3634	93.0462
1204.3276	92.7796
1205.2919	92.5563
1206.2561	92.3892
1207.2203	92.2815
1208.1846	92.2285
1209.1488	92.2217
1210.1130	92.2523
1211.0773	92.3114
1212.0415	92.3886
1213.0057	92.4707
1213.9700	92.5436
1214.9342	92.5964
1215.8984	92.6259
1216.8627	92.6379
1217.8269	92.6458
1218.7911	92.6664
1219.7554	92.7168
1220.7196	92.8122
1221.6838	92.9637
1222.6481	93.1756
1223.6123	93.4426
1224.5765	93.7494
1225.5408	94.0735
1226.5050	94.391
1227.4692	94.6833
1228.4335	94.9403
1229.3977	95.1603
1230.3619	95.3463
1231.3262	95.5035
1232.2904	95.6368
1233.2546	95.7504
1234.2189	95.8474
1235.1831	95.9289
1236.1473	95.9948
1237.1116	96.0443
1238.0758	96.078
1239.0400	96.0995
1240.0043	96.1141
1240.9685	96.1269
1241.9327	96.1405
1242.8970	96.1539
1243.8612	96.1637
1244.8254	96.1669
1245.7897	96.1627
1246.7539	96.1531
1247.7181	96.1411
1248.6824	96.1284
1249.6466	96.1134
1250.6108	96.0905
1251.5751	96.0524
1252.5393	95.9934
1253.5035	95.9129
1254.4678	95.8172
1255.4320	95.7185
1256.3962	95.6312
1257.3605	95.5663
1258.3247	95.5276
1259.2889	95.5109
1260.2532	95.5064
1261.2174	95.5034
1262.1816	95.4942
1263.1459	95.4749
1264.1101	95.4442
1265.0743	95.401
1266.0386	95.3438
1267.0028	95.271
1267.9670	95.1823
1268.9313	95.079
1269.8955	94.9641
1270.8597	94.8394
1271.8240	94.7038
1272.7882	94.5528
1273.7524	94.3787
1274.7167	94.173
1275.6809	93.9291
1276.6451	93.643
1277.6094	93.3129
1278.5736	92.9377
1279.5378	92.516
1280.5021	92.0475
1281.4663	91.5374
1282.4305	91.0019
1283.3948	90.4715
1284.3590	89.9907
1285.3232	89.6112
1286.2875	89.3811
1287.2517	89.3331
1288.2159	89.4741
1289.1802	89.783
1290.1444	90.2154
1291.1086	90.7153
1292.0729	91.228
1293.0371	91.7082
1294.0013	92.1233
1294.9656	92.4516
1295.9298	92.6802
1296.8940	92.8031
1297.8583	92.8212
1298.8225	92.7441
1299.7867	92.5898
1300.7510	92.3832
1301.7152	92.1516
1302.6794	91.92
1303.6437	91.71
1304.6079	91.5404
1305.5721	91.4312
1306.5364	91.4044
1307.5006	91.481
1308.4648	91.6746
1309.4291	91.9844
1310.3933	92.3918
1311.3575	92.8606
1312.3218	93.3444
1313.2860	93.7973
1314.2502	94.1858
1315.2145	94.495
1316.1787	94.7268
1317.1429	94.8925
1318.1072	95.0059
1319.0714	95.0781
1320.0356	95.1173
1320.9999	95.1289
1321.9641	95.1166
1322.9283	95.0819
1323.8926	95.0239
1324.8568	94.9407
1325.8210	94.8304
1326.7853	94.6936
1327.7495	94.533
1328.7137	94.3522
1329.6780	94.1533
1330.6422	93.9373
1331.6064	93.7048
1332.5707	93.4597
1333.5349	93.2106
1334.4991	92.9711
1335.4634	92.7578
1336.4276	92.5885
1337.3918	92.4794
1338.3561	92.4394
1339.3203	92.465
1340.2845	92.5391
1341.2488	92.6395
1342.2130	92.7488
1343.1772	92.8609
1344.1415	92.9786
1345.1057	93.1097
1346.0699	93.2622
1347.0342	93.4404
1347.9984	93.6426
1348.9626	93.8609
1349.9269	94.0838
1350.8911	94.299
1351.8553	94.496
1352.8196	94.6667
1353.7838	94.8057
1354.7480	94.9095
1355.7123	94.9779
1356.6765	95.0141
1357.6407	95.0237
1358.6050	95.0118
1359.5692	94.9815
1360.5334	94.9333
1361.4977	94.8671
1362.4619	94.7834
1363.4261	94.6818
1364.3904	94.5592
1365.3546	94.4104
1366.3188	94.2349
1367.2831	94.0449
1368.2473	93.87
1369.2115	93.7523
1370.1758	93.733
1371.1400	93.8376
1372.1042	94.0645
1373.0685	94.381
1374.0327	94.7257
1374.9969	95.0295
1375.9612	95.246
1376.9254	95.3679
1377.8896	95.4154
1378.8539	95.4138
1379.8181	95.3794
1380.7823	95.3188
1381.7466	95.2335
1382.7108	95.1238
1383.6750	94.987
1384.6393	94.8145
1385.6035	94.5922
1386.5677	94.3101
1387.5320	93.9746
1388.4962	93.6089
1389.4604	93.2359
1390.4247	92.8644
1391.3889	92.4905
1392.3531	92.1101
1393.3174	91.7326
1394.2816	91.3888
1395.2458	91.1253
1396.2101	90.9859
1397.1743	90.9936
1398.1385	91.1451
1399.1028	91.4177
1400.0670	91.7809
1401.0313	92.2072
1401.9955	92.679
1402.9597	93.1855
1403.9240	93.7112
1404.8882	94.2256
1405.8524	94.6868
1406.8167	95.0607
1407.7809	95.3392
1408.7451	95.5376
1409.7094	95.6791
1410.6736	95.7811
1411.6378	95.8517
1412.6021	95.8942
1413.5663	95.9126
1414.5305	95.9128
1415.4948	95.8998
1416.4590	95.8755
1417.4232	95.8406
1418.3875	95.798
1419.3517	95.7547
1420.3159	95.7168
1421.2802	95.6841
1422.2444	95.6508
1423.2086	95.6107
1424.1729	95.5611
1425.1371	95.5022
1426.1013	95.4342
1427.0656	95.3525
1428.0298	95.2483
1428.9940	95.1143
1429.9583	94.9535
1430.9225	94.7796
1431.8867	94.6066
1432.8510	94.4364
1433.8152	94.2538
1434.7794	94.034
1435.7437	93.7581
1436.7079	93.4341
1437.6721	93.0949
1438.6364	92.7675
1439.6006	92.4518
1440.5648	92.1333
1441.5291	91.8055
1442.4933	91.4825
1443.4575	91.1986
1444.4218	90.9984
1445.3860	90.9211
1446.3502	90.9868
1447.3145	91.185
1448.2787	91.4707
1449.2429	91.7759
1450.2072	92.0386
1451.1714	92.2286
1452.1356	92.3475
1453.0999	92.4095
1454.0641	92.4186
1455.0283	92.3471
1455.9926	92.1337
1456.9568	91.7439
1457.9210	91.2669
1458.8853	90.8566
1459.8495	90.5856
1460.8137	90.4451
1461.7780	90.4119
1462.7422	90.4746
1463.7064	90.6234
1464.6707	90.8281
1465.6349	91.0362
1466.5991	91.2078
1467.5634	91.3458
1468.5276	91.4897
1469.4918	91.6968
1470.4561	92.0295
1471.4203	92.5327
1472.3845	93.1841
1473.3488	93.8628
1474.3130	94.4224
1475.2772	94.8028
1476.2415	95.0319
1477.2057	95.1575
1478.1699	95.2101
1479.1342	95.2035
1480.0984	95.146
1481.0626	95.0493
1482.0269	94.9291
1482.9911	94.8013
1483.9553	94.6771
1484.9196	94.5612
1485.8838	94.4539
1486.8480	94.3553
1487.8123	94.2684
1488.7765	94.2006
1489.7407	94.1581
1490.7050	94.14
1491.6692	94.1395
1492.6334	94.1512
1493.5977	94.1726
1494.5619	94.2039
1495.5261	94.2458
1496.4904	94.2977
1497.4546	94.3571
1498.4188	94.4195
1499.3831	94.4798
1500.3473	94.5343
1501.3115	94.5809
1502.2758	94.6182
1503.2400	94.6471
1504.2042	94.672
1505.1685	94.7044
1506.1327	94.7633
1507.0969	94.8573
1508.0612	94.9633
1509.0254	95.0518
1509.9896	95.1159
1510.9539	95.1631
1511.9181	95.2017
1512.8823	95.2374
1513.8466	95.2742
1514.8108	95.3142
1515.7750	95.3574
1516.7393	95.402
1517.7035	95.4461
1518.6677	95.4894
1519.6320	95.5329
1520.5962	95.5767
1521.5604	95.6176
1522.5247	95.6519
1523.4889	95.679
1524.4531	95.7036
1525.4174	95.7315
1526.3816	95.7652
1527.3458	95.8014
1528.3101	95.8334
1529.2743	95.8554
1530.2385	95.8652
1531.2028	95.8646
1532.1670	95.8578
1533.1312	95.8501
1534.0955	95.8442
1535.0597	95.8394
1536.0239	95.8327
1536.9882	95.8219
1537.9524	95.8051
1538.9166	95.7813
1539.8809	95.7512
1540.8451	95.7203
1541.8093	95.6958
1542.7736	95.6794
1543.7378	95.6675
1544.7020	95.655
1545.6663	95.6374
1546.6305	95.6116
1547.5947	95.5763
1548.5590	95.5321
1549.5232	95.4795
1550.4874	95.4181
1551.4517	95.3466
1552.4159	95.2649
1553.3801	95.175
1554.3444	95.079
1555.3086	94.9752
1556.2728	94.8547
1557.2371	94.7037
1558.2013	94.5218
1559.1655	94.3454
1560.1298	94.211
1561.0940	94.1104
1562.0582	94.0179
1563.0225	93.9185
1563.9867	93.8102
1564.9509	93.6985
1565.9152	93.5903
1566.8794	93.4874
1567.8436	93.3821
1568.8079	93.2614
1569.7721	93.1195
1570.7363	92.9645
1571.7006	92.8069
1572.6648	92.646
1573.6290	92.465
1574.5933	92.2364
1575.5575	91.9394
1576.5217	91.5867
1577.4860	91.2237
1578.4502	90.8855
1579.4144	90.5728
1580.3787	90.2716
1581.3429	89.978
1582.3071	89.707
1583.2714	89.4864
1584.2356	89.3423
1585.1998	89.289
1586.1641	89.3307
1587.1283	89.4705
1588.0925	89.7117
1589.0568	90.0507
1590.0210	90.4707
1590.9852	90.9444
1591.9495	91.4427
1592.9137	91.9402
1593.8779	92.4161
1594.8422	92.8527
1595.8064	93.2379
1596.7706	93.5684
1597.7349	93.8501
1598.6991	94.0951
1599.6633	94.3161
1600.6276	94.5232
1601.5918	94.7216
1602.5560	94.9121
1603.5203	95.0928
1604.4845	95.2612
1605.4487	95.4166
1606.4130	95.5608
1607.3772	95.6965
1608.3414	95.8245
1609.3057	95.9417
1610.2699	96.0428
1611.2341	96.1243
1612.1984	96.1871
1613.1626	96.2363
1614.1268	96.2796
1615.0911	96.3242
1616.0553	96.3731
1617.0195	96.4209
1617.9838	96.4583
1618.9480	96.4806
1619.9122	96.4896
1620.8765	96.4896
1621.8407	96.4854
1622.8049	96.4807
1623.7692	96.4777
1624.7334	96.4763
1625.6976	96.4749
1626.6619	96.4714
1627.6261	96.4652
1628.5903	96.4569
1629.5546	96.4483
1630.5188	96.4407
1631.4830	96.4346
1632.4473	96.4292
1633.4115	96.4227
1634.3757	96.4122
1635.3400	96.3963
1636.3042	96.3771
1637.2684	96.3596
1638.2327	96.3461
1639.1969	96.3353
1640.1611	96.3247
1641.1254	96.3123
1642.0896	96.2969
1643.0538	96.2783
1644.0181	96.2567
1644.9823	96.234
1645.9465	96.2138
1646.9108	96.1995
1647.8750	96.1914
1648.8392	96.1861
1649.8035	96.18
1650.7677	96.171
1651.7319	96.1583
1652.6962	96.1451
1653.6604	96.1377
1654.6246	96.1386
1655.5889	96.1434
1656.5531	96.1476
1657.5173	96.1488
1658.4816	96.1458
1659.4458	96.1373
1660.4100	96.1223
1661.3743	96.1021
1662.3385	96.0809
1663.3027	96.0636
1664.2670	96.0527
1665.2312	96.0473
1666.1954	96.0451
1667.1597	96.0444
1668.1239	96.0443
1669.0881	96.0446
1670.0524	96.0457
1671.0166	96.0477
1671.9808	96.05
1672.9451	96.0515
1673.9094	96.0508
1674.8735	96.0466
1675.8379	96.0384
1676.8020	96.0279
1677.7664	96.0179
1678.7305	96.0107
1679.6948	96.0067
1680.6589	96.0047
1681.6233	96.001
1682.5874	95.9906
1683.5518	95.9705
1684.5159	95.9462
1685.4802	95.928
1686.4443	95.9209
1687.4087	95.9225
1688.3728	95.928
1689.3372	95.9331
1690.3013	95.9345
1691.2656	95.9305
1692.2297	95.9201
1693.1941	95.903
1694.1582	95.8792
1695.1226	95.8496
1696.0867	95.8167
1697.0510	95.7846
1698.0151	95.7579
1698.9795	95.7405
1699.9436	95.7344
1700.9080	95.7379
1701.8721	95.7469
1702.8364	95.7561
1703.8005	95.761
1704.7649	95.7583
1705.7290	95.7471
1706.6934	95.7303
1707.6575	95.7133
1708.6218	95.7009
1709.5859	95.6943
1710.5503	95.6915
1711.5144	95.6889
1712.4788	95.6832
1713.4429	95.6729
1714.4072	95.6587
1715.3713	95.6447
1716.3357	95.6368
1717.2998	95.6392
1718.2642	95.6504
1719.2283	95.665
1720.1926	95.6792
1721.1567	95.6918
1722.1211	95.7027
1723.0852	95.7114
1724.0496	95.7176
1725.0137	95.7211
1725.9780	95.7223
1726.9421	95.7219
1727.9065	95.7199
1728.8706	95.7158
1729.8350	95.7091
1730.7991	95.7004
1731.7634	95.6931
1732.7275	95.6933
1733.6919	95.7058
1734.6560	95.7294
1735.6204	95.7575
1736.5845	95.7848
1737.5488	95.8098
1738.5129	95.8324
1739.4773	95.8519
1740.4414	95.8662
1741.4058	95.8729
1742.3699	95.8717
1743.3342	95.8648
1744.2983	95.8553
1745.2627	95.8465
1746.2268	95.8417
1747.1912	95.8438
1748.1553	95.8552
1749.1196	95.8752
1750.0837	95.8989
1751.0481	95.9195
1752.0122	95.9334
1752.9766	95.9416
1753.9407	95.9473
1754.9050	95.9536
1755.8691	95.9612
1756.8335	95.9687
1757.7976	95.9736
1758.7620	95.9745
1759.7261	95.972
1760.6904	95.9686
1761.6545	95.9676
1762.6189	95.9711
1763.5830	95.9792
1764.5474	95.9903
1765.5115	96.0022
1766.4758	96.0122
1767.4399	96.0179
1768.4043	96.0177
1769.3684	96.0119
1770.3328	96.0044
1771.2969	96.0016
1772.2612	96.0085
1773.2253	96.0245
1774.1897	96.0435
1775.1538	96.0595
1776.1182	96.0696
1777.0823	96.0744
1778.0466	96.076
1779.0107	96.077
1779.9751	96.0796
1780.9392	96.0849
1781.9036	96.0927
1782.8677	96.1017
1783.8320	96.1098
1784.7961	96.1149
1785.7605	96.1157
1786.7246	96.1127
1787.6890	96.1079
1788.6531	96.104
1789.6174	96.1037
1790.5815	96.1079
1791.5459	96.1157
1792.5100	96.1243
1793.4744	96.1317
1794.4385	96.1384
1795.4028	96.1461
1796.3669	96.1558
1797.3313	96.1665
1798.2954	96.1764
1799.2598	96.1836
1800.2239	96.1883
1801.1882	96.193
1802.1523	96.2006
1803.1167	96.2123
1804.0808	96.2275
1805.0452	96.244
1806.0093	96.2604
1806.9736	96.2756
1807.9377	96.2894
1808.9021	96.3016
1809.8662	96.3129
1810.8306	96.3241
1811.7947	96.3364
1812.7590	96.3506
1813.7231	96.3655
1814.6875	96.3786
1815.6516	96.3863
1816.6160	96.3857
1817.5801	96.3766
1818.5444	96.3619
1819.5085	96.3467
1820.4729	96.3352
1821.4370	96.3298
1822.4014	96.33
1823.3655	96.334
1824.3298	96.3395
1825.2939	96.3455
1826.2583	96.352
1827.2224	96.3601
1828.1868	96.3695
1829.1509	96.378
1830.1152	96.3818
1831.0793	96.3789
1832.0437	96.3704
1833.0078	96.3604
1833.9722	96.3533
1834.9363	96.3512
1835.9006	96.3535
1836.8647	96.357
1837.8291	96.3584
1838.7932	96.3565
1839.7576	96.3531
1840.7217	96.3517
1841.6860	96.3551
1842.6501	96.3626
1843.6145	96.3698
1844.5786	96.3698
1845.5430	96.3589
1846.5071	96.3402
1847.4714	96.3211
1848.4355	96.3095
1849.3999	96.3113
1850.3640	96.328
1851.3284	96.3559
1852.2925	96.3865
1853.2568	96.4094
1854.2209	96.4175
1855.1853	96.4099
1856.1494	96.3925
1857.1138	96.375
1858.0779	96.3657
1859.0422	96.3678
1860.0063	96.3786
1860.9707	96.3922
1861.9348	96.4039
1862.8992	96.4126
1863.8633	96.4199
1864.8276	96.4277
1865.7917	96.4355
1866.7561	96.4403
1867.7202	96.4378
1868.6846	96.4267
1869.6487	96.4102
1870.6130	96.3941
1871.5771	96.3828
1872.5415	96.3779
1873.5056	96.3792
1874.4700	96.3854
1875.4341	96.3948
1876.3984	96.405
1877.3625	96.413
1878.3269	96.4165
1879.2910	96.4144
1880.2554	96.4081
1881.2195	96.4002
1882.1838	96.3934
1883.1479	96.3887
1884.1123	96.3854
1885.0764	96.3815
1886.0408	96.3747
1887.0049	96.3642
1887.9692	96.3505
1888.9333	96.3361
1889.8977	96.3234
1890.8618	96.3138
1891.8262	96.3068
1892.7903	96.3007
1893.7546	96.2944
1894.7188	96.2884
1895.6831	96.2844
1896.6472	96.2842
1897.6116	96.2878
1898.5757	96.2924
1899.5400	96.2942
1900.5042	96.2905
1901.4685	96.2816
1902.4326	96.2713
1903.3970	96.2645
1904.3611	96.2642
1905.3254	96.2701
1906.2896	96.2787
1907.2539	96.286
1908.2180	96.2895
1909.1824	96.2896
1910.1465	96.2893
1911.1108	96.2919
1912.0750	96.2997
1913.0393	96.3128
1914.0034	96.3296
1914.9678	96.3469
1915.9319	96.361
1916.8962	96.3686
1917.8604	96.3694
1918.8247	96.3674
1919.7888	96.3691
1920.7532	96.3799
1921.7173	96.401
1922.6816	96.4285
1923.6458	96.455
1924.6101	96.4739
1925.5742	96.4829
1926.5386	96.4839
1927.5027	96.4802
1928.4670	96.4731
1929.4312	96.4615
1930.3955	96.4445
1931.3596	96.4244
1932.3240	96.4083
1933.2881	96.4046
1934.2524	96.4173
1935.2166	96.4422
1936.1809	96.468
1937.1450	96.4824
1938.1094	96.4794
1939.0735	96.4619
1940.0378	96.4392
1941.0020	96.4213
1941.9663	96.4123
1942.9304	96.4091
1943.8948	96.4051
1944.8589	96.3971
1945.8232	96.3878
1946.7874	96.3834
1947.7517	96.3882
1948.7158	96.4009
1949.6802	96.415
1950.6443	96.422
1951.6086	96.4172
1952.5728	96.4032
1953.5371	96.3889
1954.5012	96.3857
1955.4656	96.4015
1956.4297	96.4365
1957.3940	96.4827
1958.3582	96.5273
1959.3225	96.5584
1960.2866	96.5705
1961.2510	96.5662
1962.2151	96.5535
1963.1794	96.5407
1964.1436	96.533
1965.1079	96.5315
1966.0720	96.534
1967.0364	96.5378
1968.0005	96.5402
1968.9648	96.5396
1969.9290	96.535
1970.8933	96.527
1971.8574	96.5187
1972.8218	96.515
1973.7859	96.5207
1974.7502	96.5371
1975.7144	96.5605
1976.6787	96.5831
1977.6428	96.5972
1978.6072	96.5992
1979.5713	96.5904
1980.5356	96.5756
1981.4998	96.5601
1982.4641	96.5476
1983.4282	96.5399
1984.3926	96.537
1985.3567	96.5367
1986.3210	96.5355
1987.2852	96.5298
1988.2495	96.5188
1989.2136	96.506
1990.1780	96.4991
1991.1421	96.5057
1992.1064	96.5278
1993.0706	96.5589
1994.0349	96.5864
1994.9990	96.599
1995.9634	96.5925
1996.9275	96.5722
1997.8918	96.5499
1998.8560	96.5381
1999.8203	96.5451
2000.7844	96.5718
2001.7488	96.6126
2002.7129	96.6584
2003.6772	96.699
2004.6414	96.7258
2005.6057	96.7346
2006.5698	96.7278
2007.5342	96.7135
2008.4983	96.7018
2009.4626	96.6981
2010.4268	96.7
2011.3911	96.6985
2012.3552	96.6856
2013.3196	96.6613
2014.2837	96.6362
2015.2480	96.6257
2016.2122	96.6411
2017.1765	96.6809
2018.1406	96.7309
2019.1050	96.772
2020.0691	96.7901
2021.0334	96.782
2021.9976	96.7537
2022.9619	96.7146
2023.9260	96.6724
2024.8904	96.6305
2025.8545	96.5898
2026.8188	96.5507
2027.7830	96.5154
2028.7473	96.4877
2029.7114	96.4721
2030.6758	96.4708
2031.6399	96.482
2032.6042	96.5002
2033.5684	96.518
2034.5327	96.53
2035.4968	96.5366
2036.4612	96.5433
2037.4253	96.5567
2038.3896	96.5789
2039.3538	96.6034
2040.3181	96.6173
2041.2822	96.6082
2042.2466	96.5721
2043.2107	96.5166
2044.1750	96.4573
2045.1392	96.4095
2046.1035	96.3814
2047.0676	96.3715
2048.0320	96.3716
2048.9961	96.3723
2049.9604	96.3681
2050.9246	96.3583
2051.8889	96.3445
2052.8530	96.3284
2053.8174	96.3102
2054.7815	96.2896
2055.7458	96.2675
2056.7100	96.247
2057.6743	96.2329
2058.6384	96.2294
2059.6028	96.2372
2060.5669	96.252
2061.5313	96.2655
2062.4954	96.2683
2063.4597	96.2542
2064.4238	96.2233
2065.3882	96.1821
2066.3523	96.14
2067.3167	96.1053
2068.2808	96.0816
2069.2451	96.068
2070.2092	96.0612
2071.1736	96.0582
2072.1377	96.0582
2073.1021	96.0624
2074.0662	96.0729
2075.0305	96.0904
2075.9946	96.1132
2076.9590	96.1369
2077.9231	96.1551
2078.8875	96.1621
2079.8516	96.1554
2080.8159	96.1377
2081.7800	96.1173
2082.7444	96.1053
2083.7085	96.1108
2084.6729	96.1365
2085.6370	96.1767
2086.6013	96.2196
2087.5654	96.2522
2088.5298	96.2663
2089.4939	96.2618
2090.4583	96.246
2091.4224	96.2292
2092.3867	96.2191
2093.3508	96.218
2094.3152	96.2227
2095.2793	96.2279
2096.2437	96.2295
2097.2078	96.2268
2098.1721	96.2219
2099.1362	96.2184
2100.1006	96.2185
2101.0647	96.2227
2102.0291	96.2298
2102.9932	96.2369
2103.9575	96.2406
2104.9216	96.2378
2105.8860	96.2267
2106.8501	96.208
2107.8145	96.1846
2108.7786	96.1611
2109.7429	96.1417
2110.7070	96.1295
2111.6714	96.1261
2112.6355	96.1317
2113.5999	96.1455
2114.5640	96.1652
2115.5283	96.1872
2116.4924	96.2073
2117.4568	96.2221
2118.4209	96.2302
2119.3853	96.2323
2120.3494	96.2303
2121.3137	96.226
2122.2778	96.2207
2123.2422	96.2161
2124.2063	96.2151
2125.1707	96.2208
2126.1348	96.2347
2127.0991	96.2542
2128.0632	96.2725
2129.0276	96.2819
2129.9917	96.2783
2130.9561	96.2645
2131.9202	96.2496
2132.8845	96.2445
2133.8486	96.256
2134.8130	96.2835
2135.7771	96.3199
2136.7415	96.3558
2137.7056	96.3838
2138.6699	96.4004
2139.6340	96.4048
2140.5984	96.3973
2141.5625	96.3784
2142.5269	96.351
2143.4910	96.322
2144.4553	96.3025
2145.4194	96.3048
2146.3838	96.3366
2147.3479	96.3961
2148.3123	96.4706
2149.2764	96.5404
2150.2407	96.5871
2151.2048	96.6011
2152.1692	96.5861
2153.1333	96.5573
2154.0977	96.5329
2155.0618	96.5259
2156.0261	96.5371
2156.9902	96.5553
2157.9546	96.5641
2158.9187	96.5519
2159.8831	96.5193
2160.8472	96.4773
2161.8115	96.4383
2162.7756	96.4079
2163.7400	96.3827
2164.7041	96.3541
2165.6685	96.3152
2166.6326	96.2668
2167.5969	96.2182
2168.5610	96.1826
2169.5254	96.1706
2170.4895	96.1842
2171.4539	96.2155
2172.4180	96.2499
2173.3823	96.2727
2174.3464	96.2749
2175.3108	96.2571
2176.2749	96.2274
2177.2393	96.1968
2178.2034	96.1741
2179.1677	96.1631
2180.1318	96.1622
2181.0962	96.1675
2182.0603	96.1746
2183.0247	96.1803
2183.9888	96.1833
2184.9531	96.1833
2185.9172	96.181
2186.8816	96.177
2187.8457	96.1711
2188.8101	96.1621
2189.7742	96.1485
2190.7385	96.1292
2191.7026	96.1051
2192.6670	96.0793
2193.6311	96.056
2194.5955	96.0392
2195.5596	96.0305
2196.5239	96.0283
2197.4880	96.0277
2198.4524	96.0224
2199.4165	96.0071
2200.3809	95.98
2201.3450	95.9444
2202.3093	95.9073
2203.2734	95.8761
2204.2378	95.8549
2205.2019	95.8418
2206.1663	95.8309
2207.1304	95.8169
2208.0947	95.7991
2209.0588	95.7831
2210.0232	95.7775
2210.9873	95.7878
2211.9517	95.8116
2212.9158	95.8382
2213.8801	95.8534
2214.8442	95.847
2215.8086	95.8188
2216.7727	95.7793
2217.7371	95.7442
2218.7012	95.7261
2219.6655	95.7278
2220.6296	95.7406
2221.5940	95.75
2222.5581	95.7441
2223.5225	95.7202
2224.4866	95.6856
2225.4509	95.6521
2226.4150	95.6284
2227.3794	95.6161
2228.3435	95.6102
2229.3079	95.605
2230.2720	95.5984
2231.2363	95.5931
2232.2004	95.5929
2233.1648	95.5985
2234.1289	95.6055
2235.0933	95.6068
2236.0574	95.5979
2237.0217	95.5794
2237.9858	95.5575
2238.9502	95.5396
2239.9143	95.5302
2240.8787	95.5283
2241.8428	95.5278
2242.8071	95.5211
2243.7712	95.5032
2244.7356	95.4748
2245.6997	95.4432
2246.6641	95.4194
2247.6282	95.4128
2248.5925	95.426
2249.5566	95.4516
2250.5210	95.475
2251.4851	95.4808
2252.4495	95.4601
2253.4136	95.4157
2254.3779	95.3598
2255.3420	95.3076
2256.3064	95.2698
2257.2705	95.2484
2258.2349	95.2393
2259.1990	95.2364
2260.1633	95.2363
2261.1274	95.2384
2262.0918	95.2423
2263.0559	95.2456
2264.0203	95.2433
2264.9844	95.2315
2265.9487	95.2104
2266.9128	95.1855
2267.8772	95.1642
2268.8413	95.1517
2269.8057	95.1474
2270.7698	95.146
2271.7341	95.1415
2272.6982	95.1313
2273.6626	95.1175
2274.6267	95.105
2275.5911	95.0967
2276.5552	95.0909
2277.5195	95.0821
2278.4836	95.0645
2279.4480	95.0361
2280.4121	94.9999
2281.3765	94.9617
2282.3406	94.9262
2283.3049	94.8951
2284.2690	94.8674
2285.2334	94.8427
2286.1975	94.8225
2287.1619	94.8098
2288.1260	94.8057
2289.0903	94.8071
2290.0544	94.8071
2291.0188	94.7988
2291.9829	94.7802
2292.9473	94.7555
2293.9114	94.7331
2294.8757	94.7195
2295.8398	94.7157
2296.8042	94.7167
2297.7683	94.7148
2298.7327	94.7043
2299.6968	94.6846
2300.6611	94.659
2301.6252	94.6328
2302.5896	94.6098
2303.5537	94.5918
2304.5181	94.578
2305.4822	94.5662
2306.4465	94.5539
2307.4106	94.5393
2308.3750	94.5224
2309.3391	94.505
2310.3035	94.4896
2311.2676	94.4773
2312.2319	94.4662
2313.1960	94.4518
2314.1604	94.4295
2315.1245	94.3981
2316.0889	94.361
2317.0530	94.324
2318.0173	94.2922
2318.9814	94.2672
2319.9458	94.2472
2320.9099	94.2297
2321.8743	94.2145
2322.8384	94.2033
2323.8027	94.1985
2324.7668	94.1997
2325.7312	94.2034
2326.6953	94.2048
2327.6597	94.2006
2328.6238	94.1906
2329.5881	94.1777
2330.5522	94.1656
2331.5166	94.156
2332.4807	94.1475
2333.4451	94.1367
2334.4092	94.1212
2335.3735	94.1013
2336.3376	94.081
2337.3020	94.0656
2338.2661	94.0585
2339.2305	94.0591
2340.1946	94.0628
2341.1589	94.0638
2342.1230	94.0583
2343.0874	94.0466
2344.0515	94.0318
2345.0159	94.0164
2345.9800	94.0002
2346.9443	93.9813
2347.9084	93.9585
2348.8728	93.9334
2349.8369	93.9106
2350.8013	93.8959
2351.7654	93.8933
2352.7297	93.9003
2353.6938	93.9066
2354.6582	93.8977
2355.6223	93.8651
2356.5867	93.813
2357.5508	93.7574
2358.5151	93.7174
2359.4792	93.7048
2360.4436	93.7184
2361.4077	93.7462
2362.3721	93.7719
2363.3362	93.7832
2364.3005	93.7752
2365.2646	93.7509
2366.2290	93.7179
2367.1931	93.684
2368.1575	93.6547
2369.1216	93.6324
2370.0859	93.6178
2371.0500	93.611
2372.0144	93.6114
2372.9785	93.6174
2373.9429	93.6251
2374.9070	93.6291
2375.8713	93.6247
2376.8354	93.6109
2377.7998	93.5907
2378.7639	93.5703
2379.7283	93.5546
2380.6924	93.5454
2381.6567	93.5395
2382.6208	93.5317
2383.5852	93.518
2384.5493	93.4983
2385.5137	93.477
2386.4778	93.4601
2387.4421	93.4519
2388.4063	93.4522
2389.3706	93.4567
2390.3347	93.4594
2391.2991	93.4555
2392.2632	93.4434
2393.2275	93.4251
2394.1917	93.4041
2395.1560	93.384
2396.1201	93.3668
2397.0845	93.3535
2398.0486	93.3439
2399.0129	93.3373
2399.9771	93.3323
2400.9414	93.3266
2401.9055	93.3176
2402.8699	93.3037
2403.8340	93.2851
2404.7983	93.2647
2405.7625	93.2463
2406.7268	93.2327
2407.6909	93.2232
2408.6553	93.2146
2409.6194	93.2028
2410.5837	93.1862
2411.5479	93.1665
2412.5122	93.1477
2413.4763	93.1334
2414.4407	93.124
2415.4048	93.1165
2416.3691	93.1072
2417.3333	93.0937
2418.2976	93.0771
2419.2617	93.0603
2420.2261	93.046
2421.1902	93.0343
2422.1545	93.0223
2423.1187	93.0065
2424.0830	92.9848
2425.0471	92.9579
2426.0115	92.9293
2426.9756	92.9029
2427.9399	92.8814
2428.9041	92.8648
2429.8684	92.8515
2430.8325	92.8395
2431.7969	92.8275
2432.7610	92.816
2433.7253	92.8055
2434.6895	92.796
2435.6538	92.7859
2436.6179	92.7722
2437.5823	92.7525
2438.5464	92.7266
2439.5107	92.697
2440.4749	92.6685
2441.4392	92.6457
2442.4033	92.6311
2443.3677	92.6238
2444.3318	92.6199
2445.2961	92.6143
2446.2603	92.6035
2447.2246	92.586
2448.1887	92.5632
2449.1531	92.5381
2450.1172	92.5138
2451.0815	92.4927
2452.0457	92.4761
2453.0100	92.4647
2453.9741	92.4585
2454.9385	92.4572
2455.9026	92.4597
2456.8669	92.4646
2457.8311	92.47
2458.7954	92.4739
2459.7595	92.4748
2460.7239	92.4719
2461.6880	92.465
2462.6523	92.4548
2463.6165	92.4434
2464.5808	92.433
2465.5449	92.426
2466.5093	92.4234
2467.4734	92.4245
2468.4377	92.4273
2469.4019	92.4297
2470.3662	92.4311
2471.3303	92.4322
2472.2947	92.4337
2473.2588	92.4353
2474.2231	92.4352
2475.1873	92.431
2476.1516	92.4215
2477.1157	92.4071
2478.0801	92.3895
2479.0442	92.3705
2480.0085	92.3511
2480.9727	92.3321
2481.9370	92.3141
2482.9011	92.2981
2483.8655	92.2841
2484.8296	92.2708
2485.7939	92.2553
2486.7581	92.2361
2487.7224	92.2139
2488.6865	92.192
2489.6509	92.1743
2490.6150	92.162
2491.5793	92.1527
2492.5435	92.1419
2493.5078	92.1265
2494.4719	92.1066
2495.4363	92.0861
2496.4004	92.0695
2497.3647	92.0594
2498.3289	92.0554
2499.2932	92.0543
2500.2573	92.0526
2501.2217	92.0474
2502.1858	92.0377
2503.1501	92.0234
2504.1143	92.0052
2505.0786	91.9846
2506.0427	91.963
2507.0071	91.9424
2507.9712	91.9243
2508.9355	91.9102
2509.8997	91.9013
2510.8640	91.8979
2511.8281	91.8989
2512.7925	91.9011
2513.7566	91.8998
2514.7209	91.8911
2515.6851	91.8745
2516.6494	91.8539
2517.6135	91.8362
2518.5779	91.8278
2519.5420	91.8298
2520.5063	91.8382
2521.4705	91.8451
2522.4348	91.8437
2523.3989	91.8316
2524.3633	91.8114
2525.3274	91.788
2526.2917	91.7653
2527.2559	91.7447
2528.2202	91.7261
2529.1843	91.7102
2530.1487	91.6993
2531.1128	91.6962
2532.0771	91.7011
2533.0413	91.7099
2534.0056	91.7155
2534.9697	91.7112
2535.9341	91.6949
2536.8982	91.6703
2537.8625	91.6452
2538.8267	91.6271
2539.7910	91.6194
2540.7551	91.6206
2541.7195	91.6259
2542.6836	91.63
2543.6479	91.6298
2544.6121	91.6251
2545.5764	91.6173
2546.5405	91.6087
2547.5049	91.6022
2548.4690	91.5999
2549.4333	91.6034
2550.3975	91.6125
2551.3618	91.625
2552.3259	91.6376
2553.2903	91.6472
2554.2544	91.6529
2555.2188	91.6559
2556.1829	91.6585
2557.1472	91.6623
2558.1113	91.6666
2559.0757	91.6692
2560.0398	91.6676
2561.0042	91.6613
2561.9683	91.6516
2562.9326	91.6419
2563.8967	91.6355
2564.8611	91.6348
2565.8252	91.6406
2566.7896	91.6521
2567.7537	91.6669
2568.7180	91.6819
2569.6821	91.694
2570.6465	91.7011
2571.6106	91.7028
2572.5750	91.7007
2573.5391	91.698
2574.5034	91.6973
2575.4675	91.7006
2576.4319	91.7079
2577.3960	91.7181
2578.3604	91.7293
2579.3245	91.7394
2580.2888	91.7465
2581.2529	91.7495
2582.2173	91.7478
2583.1814	91.7422
2584.1458	91.7342
2585.1099	91.7258
2586.0742	91.7193
2587.0383	91.7168
2588.0027	91.7201
2588.9668	91.73
2589.9312	91.7453
2590.8953	91.7626
2591.8596	91.7765
2592.8237	91.7824
2593.7881	91.7785
2594.7522	91.7682
2595.7166	91.7589
2596.6807	91.758
2597.6450	91.7691
2598.6091	91.789
2599.5735	91.8092
2600.5376	91.8208
2601.5020	91.8192
2602.4661	91.8071
2603.4304	91.7925
2604.3945	91.7846
2605.3589	91.7886
2606.3230	91.803
2607.2874	91.8212
2608.2515	91.8352
2609.2158	91.8395
2610.1799	91.8332
2611.1443	91.82
2612.1084	91.8055
2613.0728	91.7947
2614.0369	91.7903
2615.0012	91.7923
2615.9653	91.7996
2616.9297	91.8106
2617.8938	91.8244
2618.8582	91.8397
2619.8223	91.8541
2620.7866	91.8641
2621.7507	91.8655
2622.7151	91.8563
2623.6792	91.838
2624.6436	91.8162
2625.6077	91.7981
2626.5720	91.7898
2627.5361	91.7927
2628.5005	91.8042
2629.4646	91.819
2630.4290	91.833
2631.3931	91.8453
2632.3574	91.8582
2633.3215	91.8749
2634.2859	91.8973
2635.2500	91.9246
2636.2144	91.954
2637.1785	91.9822
2638.1428	92.0069
2639.1069	92.0275
2640.0713	92.0443
2641.0354	92.0581
2641.9998	92.0696
2642.9639	92.0792
2643.9282	92.0869
2644.8923	92.0928
2645.8567	92.0968
2646.8208	92.0989
2647.7852	92.0998
2648.7493	92.1007
2649.7136	92.1033
2650.6777	92.1087
2651.6421	92.1164
2652.6062	92.1248
2653.5706	92.1316
2654.5347	92.135
2655.4990	92.1349
2656.4631	92.1331
2657.4275	92.1324
2658.3916	92.1355
2659.3560	92.1438
2660.3201	92.1573
2661.2844	92.1748
2662.2485	92.194
2663.2129	92.2133
2664.1770	92.2314
2665.1414	92.2476
2666.1055	92.2621
2667.0698	92.275
2668.0339	92.286
2668.9983	92.2948
2669.9624	92.3008
2670.9268	92.304
2671.8909	92.3057
2672.8552	92.3075
2673.8193	92.3115
2674.7837	92.3187
2675.7478	92.329
2676.7122	92.3417
2677.6763	92.3559
2678.6406	92.3704
2679.6047	92.3839
2680.5691	92.3949
2681.5332	92.4018
2682.4976	92.4045
2683.4617	92.4047
2684.4260	92.4055
2685.3901	92.4103
2686.3545	92.4206
2687.3186	92.4353
2688.2830	92.4519
2689.2471	92.4682
2690.2114	92.4838
2691.1755	92.5001
2692.1399	92.5187
2693.1040	92.5397
2694.0684	92.5615
2695.0325	92.5823
2695.9968	92.6018
2696.9609	92.6215
2697.9253	92.6442
2698.8894	92.6712
2699.8538	92.7012
2700.8179	92.7309
2701.7822	92.7572
2702.7463	92.7789
2703.7107	92.7971
2704.6748	92.8142
2705.6392	92.8311
2706.6033	92.8467
2707.5676	92.8578
2708.5317	92.862
2709.4961	92.8586
2710.4602	92.8497
2711.4246	92.839
2712.3887	92.8301
2713.3530	92.8242
2714.3171	92.8205
2715.2815	92.8165
2716.2456	92.8098
2717.2100	92.7998
2718.1741	92.788
2719.1384	92.7777
2720.1025	92.7726
2721.0669	92.775
2722.0310	92.785
2722.9954	92.8003
2723.9595	92.8177
2724.9238	92.8346
2725.8879	92.8497
2726.8523	92.8636
2727.8164	92.8776
2728.7808	92.8929
2729.7449	92.9108
2730.7092	92.9318
2731.6733	92.9569
2732.6377	92.9867
2733.6018	93.021
2734.5662	93.0587
2735.5303	93.0977
2736.4946	93.1361
2737.4587	93.1722
2738.4231	93.2058
2739.3872	93.2368
2740.3516	93.2654
2741.3157	93.2912
2742.2800	93.3137
2743.2441	93.3324
2744.2085	93.3467
2745.1726	93.3557
2746.1370	93.3583
2747.1011	93.3536
2748.0654	93.3423
2749.0295	93.3271
2749.9939	93.3125
2750.9580	93.3023
2751.9224	93.2979
2752.8865	93.2973
2753.8508	93.2961
2754.8149	93.29
2755.7793	93.277
2756.7434	93.2585
2757.7078	93.2381
2758.6719	93.2192
2759.6362	93.204
2760.6003	93.1929
2761.5647	93.1851
2762.5288	93.1799
2763.4932	93.1765
2764.4573	93.1738
2765.4216	93.1703
2766.3857	93.1645
2767.3501	93.1557
2768.3142	93.1453
2769.2786	93.1356
2770.2427	93.1285
2771.2070	93.1241
2772.1711	93.1199
2773.1355	93.1128
2774.0996	93.1008
2775.0640	93.0854
2776.0281	93.0707
2776.9924	93.062
2777.9565	93.0626
2778.9209	93.0727
2779.8850	93.0893
2780.8494	93.1085
2781.8135	93.1276
2782.7778	93.1461
2783.7419	93.1657
2784.7063	93.1881
2785.6704	93.2136
2786.6348	93.2405
2787.5989	93.2659
2788.5632	93.2866
2789.5273	93.3009
2790.4917	93.3088
2791.4558	93.312
2792.4202	93.3127
2793.3843	93.3121
2794.3486	93.3103
2795.3127	93.3064
2796.2771	93.2998
2797.2412	93.2909
2798.2056	93.2817
2799.1697	93.275
2800.1340	93.2735
2801.0981	93.2777
2802.0625	93.2864
2803.0266	93.2966
2803.9910	93.3049
2804.9551	93.3087
2805.9194	93.3074
2806.8835	93.3021
2807.8479	93.2956
2808.8120	93.2908
2809.7764	93.2896
2810.7405	93.2919
2811.7048	93.2958
2812.6689	93.299
2813.6333	93.3004
2814.5974	93.3004
2815.5618	93.3011
2816.5259	93.3041
2817.4902	93.3085
2818.4543	93.3108
2819.4187	93.3061
2820.3828	93.2905
2821.3472	93.264
2822.3113	93.2299
2823.2756	93.194
2824.2397	93.161
2825.2041	93.1326
2826.1682	93.1075
2827.1326	93.082
2828.0967	93.0527
2829.0610	93.0178
2830.0251	92.9775
2830.9895	92.9332
2831.9536	92.8863
2832.9180	92.8376
2833.8821	92.7868
2834.8464	92.7334
2835.8105	92.6768
2836.7749	92.6168
2837.7390	92.5535
2838.7034	92.4873
2839.6675	92.4193
2840.6318	92.3514
2841.5959	92.2869
2842.5603	92.2295
2843.5244	92.183
2844.4888	92.1502
2845.4529	92.1319
2846.4172	92.1268
2847.3813	92.1327
2848.3457	92.1471
2849.3098	92.1693
2850.2742	92.1997
2851.2383	92.2394
2852.2026	92.2882
2853.1667	92.3439
2854.1311	92.4018
2855.0952	92.4567
2856.0596	92.505
2857.0237	92.5459
2857.9880	92.5813
2858.9521	92.614
2859.9165	92.6458
2860.8806	92.6762
2861.8450	92.7034
2862.8091	92.7255
2863.7734	92.7412
2864.7375	92.7504
2865.7019	92.7529
2866.6660	92.7481
2867.6304	92.7357
2868.5945	92.7172
2869.5588	92.6955
2870.5229	92.6752
2871.4873	92.6601
2872.4514	92.6528
2873.4158	92.6543
2874.3799	92.6656
2875.3442	92.6886
2876.3083	92.7267
2877.2727	92.7819
2878.2368	92.8534
2879.2012	92.9367
2880.1653	93.0245
2881.1296	93.1101
2882.0938	93.1891
2883.0581	93.2605
2884.0222	93.3251
2884.9866	93.3834
2885.9507	93.4343
2886.9150	93.4752
2887.8792	93.5036
2888.8435	93.5182
2889.8076	93.5193
2890.7720	93.5087
2891.7361	93.4883
2892.7004	93.4589
2893.6646	93.4206
2894.6289	93.3736
2895.5930	93.3188
2896.5574	93.2591
2897.5215	93.1985
2898.4858	93.1408
2899.4500	93.0869
2900.4143	93.0341
2901.3784	92.9764
2902.3428	92.9078
2903.3069	92.8263
2904.2712	92.7353
2905.2354	92.6433
2906.1997	92.5593
2907.1638	92.4882
2908.1282	92.4282
2909.0923	92.3723
2910.0566	92.3126
2911.0208	92.2448
2911.9851	92.1703
2912.9492	92.0946
2913.9136	92.0239
2914.8777	91.9625
2915.8420	91.9125
2916.8062	91.8749
2917.7705	91.8516
2918.7346	91.8456
2919.6990	91.86
2920.6631	91.8961
2921.6274	91.9528
2922.5916	92.0264
2923.5559	92.1112
2924.5200	92.2002
2925.4844	92.2849
2926.4485	92.3564
2927.4128	92.4068
2928.3770	92.4313
2929.3413	92.4291
2930.3054	92.4031
2931.2698	92.358
2932.2339	92.2984
2933.1982	92.2279
2934.1624	92.15
2935.1267	92.0707
2936.0908	92.0005
2937.0552	91.9542
2938.0193	91.9471
2938.9836	91.9893
2939.9478	92.0799
2940.9121	92.2045
2941.8762	92.339
2942.8406	92.4585
2943.8047	92.5483
2944.7690	92.6112
2945.7332	92.6676
2946.6975	92.7468
2947.6616	92.8748
2948.6260	93.0635
2949.5901	93.3069
2950.5544	93.5853
2951.5186	93.8729
2952.4829	94.1466
2953.4470	94.3906
2954.4114	94.5968
2955.3755	94.7642
2956.3398	94.897
2957.3040	95.0029
2958.2683	95.0911
2959.2324	95.1695
2960.1968	95.2418
2961.1609	95.3072
2962.1252	95.3613
2963.0894	95.4001
2964.0537	95.4229
2965.0178	95.4328
2965.9822	95.4361
2966.9463	95.4388
2967.9106	95.4445
2968.8748	95.4538
2969.8391	95.4648
2970.8032	95.4743
2971.7676	95.4792
2972.7317	95.4774
2973.6960	95.4683
2974.6602	95.4537
2975.6245	95.4365
2976.5886	95.42
2977.5530	95.4062
2978.5171	95.3947
2979.4814	95.383
2980.4456	95.3685
2981.4099	95.3496
2982.3740	95.3276
2983.3384	95.3055
2984.3025	95.286
2985.2668	95.2705
2986.2310	95.2579
2987.1953	95.2457
2988.1594	95.2315
2989.1238	95.2139
2990.0879	95.1928
2991.0522	95.1689
2992.0164	95.1427
2992.9807	95.1146
2993.9448	95.0844
2994.9092	95.052
2995.8733	95.0183
2996.8376	94.985
2997.8018	94.9544
2998.7661	94.9284
2999.7302	94.907
3000.6946	94.8875
3001.6587	94.8654
3002.6230	94.8369
3003.5872	94.8007
3004.5515	94.7595
3005.5156	94.7182
3006.4800	94.6807
3007.4441	94.6475
3008.4084	94.6162
3009.3726	94.5836
3010.3369	94.549
3011.3010	94.5146
3012.2654	94.4843
3013.2295	94.4601
3014.1938	94.4407
3015.1580	94.4217
3016.1223	94.398
3017.0864	94.367
3018.0508	94.3286
3019.0149	94.2849
3019.9792	94.2387
3020.9434	94.193
3021.9077	94.1507
3022.8718	94.1147
3023.8362	94.0876
3024.8003	94.07
3025.7646	94.0602
3026.7288	94.0546
3027.6931	94.049
3028.6572	94.0403
3029.6216	94.0273
3030.5857	94.0112
3031.5500	93.9942
3032.5142	93.979
3033.4785	93.967
3034.4426	93.9577
3035.4070	93.9492
3036.3711	93.9387
3037.3354	93.9244
3038.2996	93.9065
3039.2639	93.8875
3040.2280	93.8708
3041.1924	93.8594
3042.1565	93.8548
3043.1208	93.856
3044.0850	93.8606
3045.0493	93.8654
3046.0134	93.8677
3046.9778	93.8656
3047.9419	93.8589
3048.9063	93.849
3049.8704	93.838
3050.8347	93.8279
3051.7988	93.8196
3052.7632	93.8127
3053.7273	93.8064
3054.6917	93.8003
3055.6558	93.7952
3056.6201	93.7932
3057.5842	93.7958
3058.5486	93.8029
3059.5127	93.8123
3060.4771	93.8198
3061.4412	93.8215
3062.4055	93.8156
3063.3696	93.8033
3064.3340	93.7883
3065.2981	93.775
3066.2625	93.7663
3067.2266	93.7617
3068.1909	93.7587
3069.1550	93.7544
3070.1194	93.7475
3071.0835	93.7394
3072.0479	93.7323
3073.0120	93.7282
3073.9763	93.7264
3074.9404	93.7243
3075.9048	93.7189
3076.8689	93.7084
3077.8333	93.6938
3078.7974	93.6775
3079.7617	93.6625
3080.7258	93.6504
3081.6902	93.6414
3082.6543	93.6349
3083.6187	93.6299
3084.5828	93.626
3085.5471	93.6223
3086.5112	93.6172
3087.4756	93.6083
3088.4397	93.5934
3089.4041	93.5721
3090.3682	93.5456
3091.3325	93.5174
3092.2966	93.4914
3093.2610	93.4703
3094.2251	93.4543
3095.1895	93.4413
3096.1536	93.4275
3097.1179	93.4099
3098.0820	93.3878
3099.0464	93.3631
3100.0105	93.3386
3100.9749	93.3165
3101.9390	93.2957
3102.9033	93.273
3103.8674	93.2448
3104.8318	93.2102
3105.7959	93.1721
3106.7603	93.1356
3107.7244	93.105
3108.6887	93.0808
3109.6528	93.0598
3110.6172	93.0372
3111.5813	93.0094
3112.5457	92.976
3113.5098	92.9387
3114.4741	92.9002
3115.4382	92.8628
3116.4026	92.8279
3117.3667	92.7966
3118.3311	92.7687
3119.2952	92.7423
3120.2595	92.7134
3121.2236	92.6774
3122.1880	92.632
3123.1521	92.5791
3124.1165	92.5249
3125.0806	92.4768
3126.0449	92.4395
3127.0090	92.413
3127.9734	92.3928
3128.9375	92.3731
3129.9019	92.3496
3130.8660	92.3204
3131.8303	92.2862
3132.7944	92.2485
3133.7588	92.2086
3134.7229	92.1678
3135.6873	92.1269
3136.6514	92.0868
3137.6157	92.0477
3138.5798	92.0094
3139.5442	91.971
3140.5083	91.9323
3141.4727	91.8935
3142.4368	91.8562
3143.4011	91.8216
3144.3652	91.7902
3145.3296	91.7609
3146.2937	91.7315
3147.2581	91.6999
3148.2222	91.6652
3149.1865	91.628
3150.1506	91.5904
3151.1150	91.554
3152.0791	91.5192
3153.0435	91.4846
3154.0076	91.4486
3154.9719	91.4114
3155.9360	91.3754
3156.9004	91.345
3157.8645	91.3239
3158.8289	91.3123
3159.7930	91.3063
3160.7573	91.2995
3161.7214	91.2859
3162.6858	91.2634
3163.6499	91.2343
3164.6143	91.2033
3165.5784	91.1749
3166.5427	91.1507
3167.5068	91.1299
3168.4712	91.1111
3169.4353	91.0945
3170.3997	91.0819
3171.3638	91.0761
3172.3281	91.0783
3173.2922	91.0872
3174.2566	91.0991
3175.2207	91.1099
3176.1851	91.1166
3177.1492	91.1181
3178.1135	91.115
3179.0776	91.1087
3180.0420	91.1012
3181.0061	91.0953
3181.9705	91.0952
3182.9346	91.1056
3183.8989	91.1304
3184.8630	91.1701
3185.8274	91.2206
3186.7915	91.2741
3187.7559	91.322
3188.7200	91.3581
3189.6843	91.381
3190.6484	91.3936
3191.6128	91.4008
3192.5769	91.4083
3193.5413	91.4205
3194.5054	91.4412
3195.4697	91.4724
3196.4338	91.5146
3197.3982	91.5652
3198.3623	91.6193
3199.3267	91.6712
3200.2908	91.717
3201.2551	91.7562
3202.2192	91.7915
3203.1836	91.8262
3204.1477	91.8623
3205.1121	91.8998
3206.0762	91.9379
3207.0405	91.9764
3208.0046	92.0176
3208.9690	92.065
3209.9331	92.1217
3210.8975	92.188
3211.8616	92.2607
3212.8259	92.333
3213.7900	92.3971
3214.7544	92.4463
3215.7185	92.4779
3216.6829	92.4948
3217.6470	92.5049
3218.6113	92.5187
3219.5754	92.5455
3220.5398	92.5887
3221.5039	92.6439
3222.4683	92.701
3223.4324	92.7493
3224.3967	92.7825
3225.3608	92.8024
3226.3252	92.8167
3227.2893	92.8352
3228.2537	92.8636
3229.2178	92.9018
3230.1821	92.945
3231.1462	92.9879
3232.1106	93.0277
3233.0747	93.0653
3234.0391	93.1028
3235.0032	93.1412
3235.9675	93.1796
3236.9316	93.2161
3237.8960	93.2494
3238.8601	93.2803
3239.8245	93.3102
3240.7886	93.3408
3241.7529	93.3729
3242.7170	93.4066
3243.6814	93.4419
3244.6455	93.4786
3245.6099	93.5148
3246.5740	93.5466
3247.5383	93.5689
3248.5024	93.5777
3249.4668	93.5727
3250.4309	93.5585
3251.3953	93.5435
3252.3594	93.5371
3253.3237	93.5459
3254.2878	93.571
3255.2522	93.6063
3256.2163	93.6408
3257.1807	93.6616
3258.1448	93.6594
3259.1091	93.6328
3260.0732	93.5893
3261.0376	93.5426
3262.0017	93.5057
3262.9661	93.4852
3263.9302	93.4776
3264.8945	93.4728
3265.8586	93.4594
3266.8230	93.431
3267.7871	93.3883
3268.7515	93.3361
3269.7156	93.2791
3270.6799	93.2187
3271.6440	93.1528
3272.6084	93.0783
3273.5725	92.9922
3274.5369	92.8922
3275.5010	92.7756
3276.4653	92.639
3277.4294	92.4786
3278.3938	92.2924
3279.3579	92.0804
3280.3223	91.8436
3281.2864	91.5832
3282.2507	91.3011
3283.2148	91.0036
3284.1792	90.7061
3285.1433	90.4364
3286.1077	90.2317
3287.0718	90.1309
3288.0361	90.1622
3289.0002	90.3332
3289.9646	90.6259
3290.9287	91.0001
3291.8931	91.404
3292.8572	91.7884
3293.8215	92.1184
3294.7856	92.3784
3295.7500	92.5704
3296.7141	92.7072
3297.6785	92.8042
3298.6426	92.8729
3299.6069	92.9195
3300.5710	92.945
3301.5354	92.9488
3302.4995	92.9307
3303.4639	92.8915
3304.4280	92.8328
3305.3923	92.7558
3306.3564	92.6617
3307.3208	92.5523
3308.2849	92.4318
3309.2493	92.307
3310.2134	92.186
3311.1777	92.0748
3312.1418	91.9754
3313.1062	91.8842
3314.0703	91.7946
3315.0347	91.7005
3315.9988	91.5996
3316.9631	91.4945
3317.9272	91.3908
3318.8916	91.2948
3319.8557	91.211
3320.8201	91.1426
3321.7842	91.0926
3322.7485	91.0633
3323.7126	91.0552
3324.6770	91.0646
3325.6411	91.0834
3326.6055	91.1026
3327.5696	91.1173
3328.5339	91.1308
3329.4980	91.1536
3330.4624	91.1981
3331.4265	91.2721
3332.3909	91.3745
3333.3550	91.4964
3334.3193	91.6249
3335.2834	91.7468
3336.2478	91.8482
3337.2119	91.9111
3338.1763	91.9109
3339.1404	91.8184
3340.1047	91.6092
3341.0688	91.2769
3342.0332	90.8445
3342.9973	90.3662
3343.9617	89.918
3344.9258	89.578
3345.8901	89.4058
3346.8542	89.4269
3347.8186	89.6296
3348.7827	89.9723
3349.7471	90.3984
3350.7112	90.8527
3351.6755	91.2927
3352.6396	91.6936
3353.6040	92.0468
3354.5681	92.355
3355.5325	92.6253
3356.4966	92.8653
3357.4609	93.0802
3358.4250	93.2737
3359.3894	93.4492
3360.3535	93.6115
3361.3179	93.766
3362.2820	93.9176
3363.2463	94.0679
3364.2104	94.2152
3365.1748	94.3556
3366.1389	94.4858
3367.1033	94.6051
3368.0674	94.7155
3369.0317	94.8198
3369.9958	94.9197
3370.9602	95.0146
3371.9243	95.1035
3372.8887	95.1862
3373.8528	95.2651
3374.8171	95.3444
3375.7813	95.4281
3376.7456	95.5172
3377.7097	95.609
3378.6741	95.6987
3379.6382	95.7821
3380.6025	95.8589
3381.5667	95.9316
3382.5310	96.0034
3383.4951	96.0743
3384.4595	96.1398
3385.4236	96.1937
3386.3879	96.2334
3387.3521	96.2636
3388.3164	96.2964
3389.2805	96.345
3390.2449	96.4168
3391.2090	96.5083
3392.1733	96.6059
3393.1375	96.6926
3394.1018	96.7573
3395.0659	96.799
3396.0303	96.8254
3396.9944	96.8473
3397.9587	96.8724
3398.9229	96.9031
3399.8872	96.9381
3400.8513	96.9759
3401.8157	97.0163
3402.7798	97.0602
3403.7441	97.1067
3404.7083	97.1532
3405.6726	97.196
3406.6367	97.2339
3407.6011	97.269
3408.5652	97.3057
3409.5295	97.3473
3410.4937	97.3936
3411.4580	97.44
3412.4221	97.4804
3413.3865	97.51
3414.3506	97.5283
3415.3149	97.539
3416.2791	97.5484
3417.2434	97.5638
3418.2075	97.5907
3419.1719	97.6312
3420.1360	97.6825
3421.1003	97.7377
3422.0645	97.7885
3423.0288	97.8292
3423.9929	97.8599
3424.9573	97.8851
3425.9214	97.9108
3426.8857	97.9405
3427.8499	97.9733
3428.8142	98.005
3429.7783	98.0317
3430.7427	98.0525
3431.7068	98.0693
3432.6711	98.0852
3433.6353	98.102
3434.5996	98.1204
3435.5637	98.1409
3436.5281	98.165
3437.4922	98.1947
3438.4565	98.2302
3439.4207	98.2687
3440.3850	98.3048
3441.3491	98.3331
3442.3135	98.3515
3443.2776	98.3619
3444.2419	98.3683
3445.2061	98.3741
3446.1704	98.3799
3447.1345	98.3849
3448.0989	98.3888
3449.0630	98.3944
3450.0273	98.407
3450.9915	98.431
3451.9558	98.4669
3452.9199	98.5097
3453.8843	98.5501
3454.8484	98.5798
3455.8127	98.5952
3456.7769	98.5994
3457.7412	98.5999
3458.7053	98.6037
3459.6697	98.6139
3460.6338	98.6285
3461.5981	98.643
3462.5623	98.6542
3463.5266	98.662
3464.4907	98.6695
3465.4551	98.6799
3466.4192	98.6943
3467.3835	98.7107
3468.3477	98.7257
3469.3120	98.7358
3470.2761	98.7394
3471.2405	98.7372
3472.2046	98.7327
3473.1689	98.7306
3474.1331	98.7357
3475.0974	98.7512
3476.0615	98.7767
3477.0259	98.8089
3477.9900	98.8424
3478.9543	98.8724
3479.9185	98.8967
3480.8828	98.9155
3481.8469	98.9306
3482.8113	98.9431
3483.7754	98.9525
3484.7397	98.9574
3485.7039	98.9565
3486.6682	98.9504
3487.6323	98.9417
3488.5967	98.9344
3489.5608	98.9327
3490.5251	98.9395
3491.4893	98.9564
3492.4536	98.9824
3493.4177	99.0141
3494.3821	99.0446
3495.3462	99.0661
3496.3105	99.0723
3497.2747	99.062
3498.2390	99.0401
3499.2031	99.0162
3500.1675	99.0005
3501.1316	99.0007
3502.0959	99.0188
3503.0601	99.0503
3504.0244	99.0866
3504.9885	99.1193
3505.9529	99.1435
3506.9170	99.1578
3507.8813	99.1634
3508.8455	99.1627
3509.8098	99.158
3510.7739	99.1504
3511.7383	99.1401
3512.7024	99.1267
3513.6667	99.1117
3514.6309	99.0988
3515.5952	99.0931
3516.5593	99.0986
3517.5237	99.1144
3518.4878	99.1347
3519.4521	99.1515
3520.4163	99.1593
3521.3806	99.1586
3522.3447	99.1546
3523.3091	99.1534
3524.2732	99.1566
3525.2375	99.161
3526.2017	99.1616
3527.1660	99.1576
3528.1301	99.1536
3529.0945	99.1565
3530.0586	99.1692
3531.0229	99.1876
3531.9871	99.2029
3532.9514	99.207
3533.9155	99.198
3534.8799	99.1812
3535.8440	99.1662
3536.8083	99.1616
3537.7725	99.1696
3538.7368	99.1858
3539.7009	99.2025
3540.6653	99.2128
3541.6294	99.213
3542.5938	99.2034
3543.5579	99.1876
3544.5222	99.1714
3545.4863	99.161
3546.4507	99.1607
3547.4148	99.1712
3548.3792	99.1904
3549.3433	99.2149
3550.3076	99.2409
3551.2717	99.2649
3552.2361	99.2833
3553.2002	99.293
3554.1646	99.2927
3555.1287	99.283
3556.0930	99.2671
3557.0571	99.2503
3558.0215	99.2384
3558.9856	99.2365
3559.9500	99.2463
3560.9141	99.2647
3561.8784	99.2854
3562.8425	99.3015
3563.8069	99.3078
3564.7710	99.3037
3565.7354	99.2932
3566.6995	99.2845
3567.6638	99.2838
3568.6279	99.2906
3569.5923	99.2989
3570.5564	99.3023
3571.5208	99.2976
3572.4849	99.2856
3573.4492	99.2706
3574.4133	99.2585
3575.3777	99.2538
3576.3418	99.2574
3577.3062	99.267
3578.2703	99.2788
3579.2346	99.2893
3580.1987	99.2961
3581.1631	99.297
3582.1272	99.29
3583.0916	99.2736
3584.0557	99.2485
3585.0200	99.2206
3585.9841	99.2012
3586.9485	99.2026
3587.9126	99.2274
3588.8770	99.2655
3589.8411	99.3024
3590.8054	99.3293
3591.7695	99.3452
3592.7339	99.3534
3593.6980	99.3572
3594.6624	99.356
3595.6265	99.3457
3596.5908	99.3233
3597.5549	99.2918
3598.5193	99.2622
3599.4834	99.2487
3600.4478	99.2604
3601.4119	99.294
3602.3762	99.3347
3603.3403	99.3649
3604.3047	99.3724
3605.2688	99.3547
3606.2332	99.319
3607.1973	99.2781
3608.1616	99.2443
3609.1257	99.2235
3610.0901	99.2154
3611.0542	99.2178
3612.0186	99.2303
3612.9827	99.2531
3613.9470	99.2841
3614.9111	99.3173
3615.8755	99.3453
3616.8396	99.3622
3617.8040	99.3661
3618.7681	99.3589
3619.7324	99.3446
3620.6965	99.3261
3621.6609	99.3046
3622.6250	99.2812
3623.5894	99.2585
3624.5535	99.242
3625.5178	99.2393
3626.4819	99.2584
3627.4463	99.2995
3628.4104	99.3464
3629.3748	99.3722
3630.3389	99.3627
3631.3032	99.3256
3632.2673	99.2787
3633.2317	99.2388
3634.1958	99.2171
3635.1602	99.217
3636.1243	99.2327
3637.0886	99.2523
3638.0527	99.2638
3639.0171	99.2616
3639.9812	99.2493
3640.9456	99.2362
3641.9097	99.2315
3642.8740	99.2387
3643.8381	99.2532
3644.8025	99.2651
3645.7666	99.2627
3646.7310	99.2378
3647.6951	99.1956
3648.6594	99.1603
3649.6235	99.1584
3650.5879	99.191
3651.5520	99.239
3652.5164	99.2837
3653.4805	99.3145
3654.4448	99.3263
3655.4089	99.3178
3656.3733	99.2927
3657.3374	99.2601
3658.3018	99.231
3659.2659	99.2137
3660.2302	99.2119
3661.1943	99.225
3662.1587	99.2481
3663.1228	99.2733
3664.0872	99.2927
3665.0513	99.3022
3666.0156	99.3024
3666.9797	99.2977
3667.9441	99.2936
3668.9082	99.2933
3669.8726	99.2963
3670.8367	99.2999
3671.8010	99.3036
3672.7651	99.3087
3673.7295	99.3139
3674.6936	99.3119
3675.6580	99.2928
3676.6221	99.255
3677.5864	99.2108
3678.5505	99.1767
3679.5149	99.163
3680.4790	99.17
3681.4434	99.1899
3682.4075	99.2102
3683.3718	99.2207
3684.3359	99.2181
3685.3003	99.2078
3686.2644	99.2008
3687.2288	99.2083
3688.1929	99.2344
3689.1572	99.2698
3690.1213	99.2979
3691.0857	99.3086
3692.0498	99.3021
3693.0142	99.2825
3693.9783	99.2545
3694.9426	99.2236
3695.9067	99.198
3696.8711	99.1879
3697.8352	99.2011
3698.7996	99.238
3699.7637	99.2875
3700.7280	99.3294
3701.6921	99.3441
3702.6565	99.3256
3703.6206	99.2837
3704.5850	99.2354
3705.5491	99.1948
3706.5134	99.1694
3707.4775	99.1626
3708.4419	99.1762
3709.4060	99.2098
3710.3704	99.2563
3711.3345	99.3006
3712.2988	99.3269
3713.2629	99.3293
3714.2273	99.3118
3715.1914	99.2828
3716.1558	99.2514
3717.1199	99.2264
3718.0842	99.2159
3719.0483	99.2246
3720.0127	99.2503
3720.9768	99.2824
3721.9412	99.3054
3722.9053	99.3068
3723.8696	99.2836
3724.8337	99.2447
3725.7981	99.2057
3726.7622	99.1795
3727.7266	99.1703
3728.6907	99.1752
3729.6550	99.1882
3730.6191	99.2045
3731.5835	99.2223
3732.5476	99.2421
3733.5120	99.2639
3734.4761	99.2847
3735.4404	99.2979
3736.4045	99.2986
3737.3689	99.2875
3738.3330	99.2691
3739.2974	99.2485
3740.2615	99.2296
3741.2258	99.2147
3742.1899	99.2048
3743.1543	99.1975
3744.1184	99.1878
3745.0828	99.1718
3746.0469	99.1521
3747.0112	99.137
3747.9753	99.1365
3748.9397	99.1584
3749.9038	99.2003
3750.8682	99.2426
3751.8323	99.2584
3752.7966	99.2372
3753.7607	99.1887
3754.7251	99.13
3755.6892	99.0779
3756.6536	99.0481
3757.6177	99.0526
3758.5820	99.0927
3759.5461	99.1546
3760.5105	99.2163
3761.4746	99.2594
3762.4390	99.2747
3763.4031	99.2615
3764.3674	99.2253
3765.3315	99.1771
3766.2959	99.1318
3767.2600	99.1041
3768.2244	99.1031
3769.1885	99.1278
3770.1528	99.167
3771.1169	99.2052
3772.0813	99.2304
3773.0454	99.2386
3774.0098	99.2327
3774.9739	99.2188
3775.9382	99.2045
3776.9023	99.1961
3777.8667	99.1968
3778.8308	99.2049
3779.7952	99.2145
3780.7593	99.221
3781.7236	99.225
3782.6877	99.2317
3783.6521	99.2472
3784.6162	99.2731
3785.5806	99.3034
3786.5447	99.3265
3787.5090	99.332
3788.4731	99.3167
3789.4375	99.2865
3790.4016	99.2525
3791.3660	99.2255
3792.3301	99.2124
3793.2944	99.2146
3794.2585	99.2279
3795.2229	99.2446
3796.1870	99.2554
3797.1514	99.2523
3798.1155	99.2307
3799.0798	99.1916
3800.0439	99.1445
3801.0083	99.1063
3801.9724	99.0925
3802.9368	99.107
3803.9009	99.1419
3804.8652	99.1848
3805.8293	99.2237
3806.7937	99.2484
3807.7578	99.2541
3808.7222	99.2429
3809.6863	99.2223
3810.6506	99.1995
3811.6147	99.1793
3812.5791	99.1641
3813.5432	99.1539
3814.5076	99.1468
3815.4717	99.139
3816.4360	99.1272
3817.4001	99.1105
3818.3645	99.0918
3819.3286	99.0762
3820.2930	99.07
3821.2571	99.0766
3822.2214	99.0936
3823.1855	99.1144
3824.1499	99.1328
3825.1140	99.1459
3826.0784	99.1549
3827.0425	99.1643
3828.0068	99.1801
3828.9709	99.206
3829.9353	99.2394
3830.8994	99.2709
3831.8638	99.2883
3832.8279	99.283
3833.7922	99.2548
3834.7563	99.213
3835.7207	99.1712
3836.6848	99.1415
3837.6492	99.1275
3838.6133	99.1244
3839.5776	99.1251
3840.5417	99.1279
3841.5061	99.1365
3842.4702	99.1559
3843.4346	99.1862
3844.3987	99.2207
3845.3630	99.249
3846.3271	99.2618
3847.2915	99.2552
3848.2556	99.2312
3849.2200	99.1973
3850.1841	99.1655
3851.1484	99.1535
3852.1125	99.1776
3853.0769	99.234
3854.0410	99.2903
3855.0054	99.3178
3855.9695	99.3151
3856.9338	99.2941
3857.8979	99.2653
3858.8623	99.2344
3859.8264	99.2044
3860.7908	99.1778
3861.7549	99.1573
3862.7192	99.1451
3863.6833	99.1402
3864.6477	99.139
3865.6118	99.138
3866.5762	99.1371
3867.5403	99.14
3868.5046	99.1528
3869.4688	99.1792
3870.4331	99.2164
3871.3972	99.2536
3872.3616	99.2781
3873.3257	99.2819
3874.2900	99.2657
3875.2542	99.2364
3876.2185	99.2036
3877.1826	99.1773
3878.1470	99.165
3879.1111	99.1695
3880.0754	99.1877
3881.0396	99.2113
3882.0039	99.2328
3882.9680	99.249
3883.9324	99.2615
3884.8965	99.2732
3885.8608	99.2844
3886.8250	99.2923
3887.7893	99.2926
3888.7534	99.2808
3889.7178	99.2539
3890.6819	99.2132
3891.6462	99.1661
3892.6104	99.1252
3893.5747	99.1015
3894.5388	99.0984
3895.5032	99.1126
3896.4673	99.1367
3897.4316	99.1614
3898.3958	99.1784
3899.3601	99.1837
3900.3242	99.1808
3901.2886	99.1776
3902.2527	99.1797
3903.2170	99.1869
3904.1812	99.1951
3905.1455	99.201
3906.1096	99.2045
3907.0740	99.2065
3908.0381	99.2066
3909.0024	99.2028
3909.9666	99.1934
3910.9309	99.1792
3911.8950	99.1643
3912.8594	99.154
3913.8235	99.1526
3914.7878	99.1613
3915.7520	99.1785
3916.7163	99.2011
3917.6804	99.2254
3918.6448	99.2476
3919.6089	99.2632
3920.5732	99.268
3921.5374	99.2595
3922.5017	99.2396
3923.4658	99.2156
3924.4302	99.1986
3925.3943	99.197
3926.3586	99.2115
3927.3228	99.2345
3928.2871	99.2546
3929.2512	99.2624
3930.2156	99.2546
3931.1797	99.2365
3932.1440	99.2187
3933.1082	99.2107
3934.0725	99.2145
3935.0366	99.225
3936.0010	99.2355
3936.9651	99.2422
3937.9294	99.2462
3938.8936	99.2522
3939.8579	99.2636
3940.8220	99.2791
3941.7864	99.2913
3942.7505	99.2909
3943.7148	99.2735
3944.6790	99.2429
3945.6433	99.2095
3946.6074	99.1852
3947.5718	99.1778
3948.5359	99.1879
3949.5002	99.2091
3950.4644	99.2308
3951.4287	99.2432
3952.3928	99.2407
3953.3572	99.2227
3954.3213	99.1929
3955.2856	99.1584
3956.2498	99.1283
3957.2141	99.1105
3958.1782	99.1095
3959.1426	99.1244
3960.1067	99.1501
3961.0710	99.1795
3962.0352	99.2069
3962.9995	99.2291
3963.9636	99.2444
3964.9280	99.2511
3965.8921	99.2471
3966.8564	99.2316
3967.8206	99.2083
3968.7849	99.1858
3969.7490	99.1751
3970.7134	99.1828
3971.6775	99.2066
3972.6418	99.2345
3973.6060	99.2519
3974.5703	99.25
3975.5344	99.2312
3976.4988	99.2074
3977.4629	99.1918
3978.4272	99.1908
3979.3914	99.201
3980.3557	99.212
3981.3198	99.2145
3982.2842	99.2052
3983.2483	99.1882
3984.2126	99.1698
3985.1768	99.1544
3986.1411	99.142
3987.1052	99.1302
3988.0696	99.1181
3989.0337	99.1079
3989.9980	99.1041
3990.9622	99.1097
3991.9265	99.1237
3992.8906	99.1413
3993.8550	99.157
3994.8191	99.1673
3995.7834	99.1727
3996.7476	99.1761
3997.7119	99.1806
3998.6760	99.1865
3999.6404	99.1912
4000.6045	99.1905

##### Extended Information
[Comments]
Sample name
Comment
Username
Division
Organization	Uni Wrzburg

[Detailed Information]
Creation date	10/20/2025 3:36 PM

Data array type	Linear data array
Horizontal axis	Wavenumber [cm-1]
Vertical axis	%T
Start	649.893 cm-1
End	4000.6 cm-1
Data interval	0.964233 cm-1
Data points	3476    

[Measurement Information]
Model name	FT/IR-4100typeA
Serial No.	C210961016

Measurement date	10/20/2025 3:36 PM

Light source	Standard
Detector	TGS
Accumulation	25
Resolution	4 cm-1
Zero filling	On
Apodization	Cosine
Gain	Auto (8)
Aperture	Auto (7.1 mm)
Scan speed	Auto (2 mm/sec)
Filter	Auto (30000 Hz)

