Wavelength (nm),Intensity (uW)
351.277274,0.000038
351.624370,0.000037
352.339445,0.000037
353.119887,0.000037
353.875899,0.000037
355.085029,0.000037
355.415854,0.000038
356.207106,0.000038
356.970282,0.000038
357.761664,0.000037
358.503269,0.000037
359.323760,0.000037
360.063127,0.000037
360.828674,0.000037
361.625112,0.000038
362.386681,0.000037
363.157878,0.000037
363.946159,0.000037
364.708200,0.000037
365.472240,0.000037
366.246481,0.000037
367.031444,0.000037
367.795765,0.000037
368.549795,0.000037
369.368951,0.000037
370.081889,0.000037
370.883174,0.000037
371.630599,0.000037
372.434605,0.000037
373.185549,0.000037
373.964552,0.000037
374.720392,0.000037
375.488615,0.000037
376.265789,0.000037
377.033060,0.000037
377.831882,0.000037
378.585979,0.000037
379.344047,0.000038
380.135968,0.000037
380.893648,0.000037
381.655570,0.000037
382.435831,0.000037
383.211254,0.000037
383.989072,0.000037
384.735000,0.000037
385.536038,0.000037
386.276162,0.000037
387.052238,0.000037
387.827999,0.000037
388.595601,0.000037
389.380133,0.000037
390.127231,0.000037
390.885993,0.000037
391.680464,0.000037
392.443685,0.000037
393.193009,0.000037
393.969076,0.000037
394.736998,0.000037
395.510377,0.000037
396.273526,0.000037
397.039683,0.000037
397.796430,0.000037
398.569433,0.000037
399.360106,0.000037
400.100623,0.000037
400.873139,0.000037
401.635377,0.000037
402.403457,0.000037
403.204897,0.000037
403.960041,0.000037
404.731134,0.000037
405.473187,0.000037
406.247004,0.000037
407.032106,0.000037
407.773675,0.000037
408.542748,0.000037
409.305047,0.000037
410.067472,0.000037
410.854831,0.000037
411.610793,0.000037
412.350830,0.000037
413.121942,0.000037
413.898608,0.000037
414.692507,0.000037
415.458167,0.000037
416.206331,0.000037
416.981188,0.000037
417.721588,0.000037
418.524140,0.000037
419.254328,0.000037
420.022257,0.000037
420.805708,0.000037
421.551518,0.000037
422.350645,0.000037
423.074531,0.000037
423.847085,0.000037
424.625109,0.000037
425.358850,0.000037
426.154503,0.000037
426.879274,0.000037
427.667720,0.000037
428.426391,0.000037
429.191091,0.000037
429.952313,0.000037
430.707075,0.000037
431.479823,0.000037
432.248556,0.000037
432.997124,0.000037
433.778501,0.000037
434.511385,0.000037
435.298357,0.000037
436.055013,0.000037
436.799973,0.000037
437.578891,0.000037
438.344549,0.000037
439.075170,0.000037
439.855442,0.000037
440.623507,0.000037
441.397081,0.000037
442.123376,0.000037
442.906304,0.000037
443.655265,0.000037
444.424663,0.000037
445.188889,0.000037
445.930360,0.000037
446.703833,0.000037
447.453336,0.000037
448.214995,0.000037
449.016097,0.000037
449.736655,0.000037
450.516744,0.000037
451.254656,0.000037
452.035504,0.000037
452.791953,0.000037
453.540539,0.000037
454.288819,0.000037
455.056534,0.000037
455.807235,0.000037
456.580711,0.000037
457.345258,0.000037
458.090081,0.000037
458.849356,0.000037
459.581891,0.000037
460.364836,0.000037
461.125231,0.000037
461.851383,0.000037
462.643300,0.000037
463.386265,0.000037
464.152517,0.000037
464.905157,0.000037
465.655428,0.000037
466.411105,0.000037
467.170411,0.000037
467.940262,0.000037
468.695508,0.000037
469.459885,0.000037
470.193752,0.000037
470.955352,0.000037
471.719590,0.000037
472.464365,0.000037
473.222233,0.000037
473.954239,0.000037
474.759154,0.000037
475.542587,0.000037
476.241317,0.000037
477.009420,0.000037
477.777182,0.000037
478.529232,0.000037
479.264980,0.000037
480.028427,0.000037
480.821174,0.000037
481.584215,0.000037
482.280429,0.000037
483.074348,0.000037
483.778751,0.000037
484.606765,0.000037
485.289329,0.000037
486.068177,0.000037
486.834527,0.000037
487.549939,0.000037
488.298714,0.000037
489.079384,0.000037
489.827782,0.000037
490.613907,0.000037
491.318087,0.000037
492.076731,0.000037
492.817040,0.000037
493.610029,0.000037
494.338992,0.000037
495.119102,0.000037
495.828022,0.000037
496.576471,0.000037
497.342878,0.000037
498.117610,0.000037
498.845977,0.000037
499.567942,0.000037
500.366531,0.000037
501.079708,0.000037
501.859643,0.000037
502.571234,0.000037
503.353429,0.000037
504.090483,0.000037
504.851190,0.000037
505.597734,0.000037
506.326857,0.000037
507.120800,0.000037
507.844940,0.000037
508.601236,0.000037
509.355085,0.000037
510.090372,0.000037
510.848458,0.000037
511.599571,0.000037
512.342805,0.000037
513.134941,0.000037
513.827254,0.000037
514.612401,0.000037
515.320234,0.000037
516.084788,0.000037
516.849093,0.000037
517.563187,0.000037
518.335402,0.000037
519.061897,0.000037
519.825752,0.000037
520.559213,0.000037
521.301718,0.000037
522.068797,0.000037
522.801537,0.000037
523.546912,0.000037
524.309047,0.000037
525.020228,0.000037
525.801387,0.000037
526.518210,0.000037
527.276308,0.000037
528.046488,0.000037
528.761852,0.000037
529.493559,0.000037
530.264032,0.000037
531.004218,0.000037
531.776770,0.000037
532.482595,0.000037
533.223981,0.000037
533.962390,0.000037
534.730825,0.000037
535.470052,0.000037
536.208640,0.000037
536.977967,0.000037
537.704216,0.000037
538.447382,0.000037
539.208416,0.000037
539.915478,0.000037
540.656760,0.000037
541.442832,0.000037
542.139367,0.000037
542.889033,0.000037
543.649787,0.000037
544.366758,0.000037
545.139021,0.000037
545.858781,0.000037
546.615494,0.000037
547.354760,0.000037
548.116754,0.000037
548.817098,0.000037
549.552978,0.000037
550.312532,0.000037
551.051232,0.000037
551.827222,0.000037
552.530014,0.000037
553.292925,0.000037
554.025350,0.000037
554.756426,0.000037
555.476770,0.000037
556.244223,0.000037
556.968526,0.000037
557.720561,0.000037
558.464643,0.000037
559.183851,0.000037
559.922683,0.000037
560.675781,0.000037
561.412688,0.000037
562.147217,0.000037
562.869417,0.000037
563.633813,0.000037
564.353652,0.000037
565.137617,0.000038
565.845123,0.000038
566.583652,0.000038
567.314073,0.000037
568.044985,0.000037
568.802077,0.000037
569.531095,0.000037
570.245210,0.000037
571.026602,0.000037
571.738016,0.000037
572.470748,0.000037
573.224224,0.000038
573.945242,0.000037
574.673413,0.000038
575.422243,0.000038
576.176112,0.000038
576.867121,0.000038
577.626935,0.000038
578.350569,0.000038
579.100710,0.000038
579.835675,0.000038
580.549664,0.000038
581.294603,0.000038
582.022848,0.000038
582.746788,0.000038
583.492642,0.000038
584.208980,0.000038
584.968695,0.000038
585.688894,0.000038
586.414191,0.000038
587.164797,0.000038
587.917106,0.000038
588.611362,0.000038
589.348405,0.000038
590.080037,0.000038
590.822991,0.000038
591.547205,0.000038
592.279164,0.000038
593.011273,0.000038
593.754006,0.000038
594.479505,0.000038
595.191511,0.000038
595.932773,0.000038
596.675413,0.000038
597.404838,0.000038
598.149286,0.000038
598.864560,0.000038
599.585295,0.000038
600.352677,0.000038
601.042420,0.000038
601.789421,0.000038
602.536020,0.000038
603.255474,0.000038
603.974335,0.000038
604.742202,0.000038
605.426155,0.000038
606.169643,0.000038
606.896845,0.000038
607.647908,0.000038
608.363719,0.000038
609.116991,0.000038
609.800522,0.000038
610.539231,0.000038
611.264324,0.000038
611.976534,0.000038
612.724244,0.000038
613.419055,0.000038
614.253137,0.000038
614.883621,0.000038
615.633719,0.000038
616.356010,0.000038
617.135705,0.000038
617.795044,0.000038
618.526766,0.000038
619.252530,0.000038
619.989456,0.000038
620.711599,0.000038
621.422648,0.000038
622.174959,0.000039
622.867805,0.000038
623.587139,0.000038
624.323113,0.000038
625.043204,0.000038
625.772901,0.000039
626.518718,0.000039
627.236624,0.000038
627.942090,0.000039
628.670957,0.000039
629.366550,0.000038
630.118517,0.000039
630.835047,0.000039
631.598110,0.000039
632.271431,0.000038
633.037232,0.000038
633.714250,0.000038
634.448912,0.000038
635.165647,0.000038
635.885689,0.000038
636.629986,0.000038
637.346425,0.000038
638.053609,0.000038
638.831375,0.000038
639.492839,0.000038
640.229526,0.000038
640.941614,0.000038
641.652764,0.000038
642.388694,0.000039
643.089367,0.000038
643.812272,0.000038
644.532178,0.000038
645.281058,0.000038
645.962977,0.000038
646.716968,0.000038
647.407187,0.000038
648.150283,0.000038
648.859535,0.000038
649.572474,0.000038
650.293752,0.000038
650.989382,0.000038
651.736703,0.000038
652.441814,0.000038
653.150060,0.000038
653.891699,0.000038
654.602739,0.000038
655.340867,0.000038
656.032147,0.000038
656.732788,0.000038
657.492635,0.000038
658.191988,0.000038
658.915965,0.000038
659.606467,0.000038
660.322143,0.000038
661.079246,0.000039
661.763958,0.000038
662.488341,0.000038
663.181886,0.000039
663.901411,0.000039
664.627311,0.000039
665.320878,0.000039
666.056337,0.000039
666.795983,0.000039
667.466250,0.000039
668.187842,0.000039
668.897570,0.000039
669.638960,0.000039
670.334687,0.000039
671.048763,0.000039
671.744339,0.000039
672.464274,0.000039
673.195723,0.000039
673.905753,0.000039
674.596946,0.000039
675.307105,0.000039
676.017206,0.000039
676.769011,0.000039
677.439612,0.000039
678.165858,0.000039
678.868931,0.000039
679.602753,0.000039
680.287019,0.000039
680.991959,0.000039
681.732388,0.000039
682.415033,0.000039
683.137848,0.000039
683.855295,0.000039
684.563261,0.000039
685.251496,0.000039
685.953631,0.000039
686.677787,0.000039
687.400339,0.000039
688.087502,0.000039
688.829875,0.000039
689.500690,0.000039
690.227057,0.000039
690.928945,0.000039
691.640360,0.000039
692.328548,0.000039
693.051227,0.000039
693.744972,0.000039
694.470186,0.000039
695.154145,0.000039
695.881160,0.000039
696.585784,0.000039
697.296067,0.000039
697.994585,0.000039
698.690379,0.000039
699.433074,0.000039
700.104263,0.000039
700.804175,0.000039
701.539955,0.000039
702.234517,0.000039
702.918984,0.000039
703.655933,0.000039
704.331498,0.000038
705.063721,0.000039
705.755097,0.000039
706.443489,0.000039
707.158000,0.000039
707.912007,0.000039
708.567656,0.000038
709.270393,0.000038
709.953914,0.000038
710.681382,0.000038
711.352951,0.000038
712.080353,0.000038
712.777831,0.000038
713.465433,0.000039
714.184177,0.000039
714.863454,0.000038
715.576367,0.000039
716.282656,0.000039
716.998295,0.000039
717.674161,0.000039
718.401046,0.000039
719.085453,0.000039
719.787616,0.000039
720.487582,0.000038
721.160250,0.000038
721.892669,0.000038
722.579516,0.000038
723.254432,0.000039
723.955328,0.000039
724.680080,0.000039
725.342132,0.000038
726.080796,0.000038
726.791746,0.000038
727.478350,0.000038
728.157390,0.000038
728.856417,0.000038
729.542284,0.000038
730.265266,0.000038
730.929858,0.000038
731.623471,0.000038
732.356280,0.000038
733.032662,0.000038
733.731969,0.000038
734.433727,0.000038
735.112787,0.000038
735.801352,0.000038
736.516468,0.000038
737.200070,0.000038
737.885530,0.000038
738.596070,0.000038
739.277089,0.000038
739.987069,0.000038
740.670451,0.000038
741.373115,0.000038
742.078655,0.000038
742.744421,0.000038
743.443898,0.000038
744.143482,0.000038
744.843739,0.000038
745.522848,0.000038
746.219182,0.000038
746.932271,0.000038
747.601462,0.000038
748.304041,0.000038
748.966490,0.000038
749.684486,0.000038
750.385537,0.000038
751.040537,0.000038
751.741863,0.000038
752.452452,0.000038
753.122572,0.000038
753.826714,0.000038
754.499555,0.000038
755.201223,0.000038
755.896388,0.000038
756.583955,0.000038
757.288721,0.000038
757.950240,0.000038
758.616589,0.000038
759.338899,0.000038
759.999605,0.000038
760.730710,0.000038
761.384334,0.000038
762.076849,0.000038
762.765094,0.000038
763.465979,0.000038
764.159324,0.000038
764.819731,0.000038
765.506017,0.000038
766.182525,0.000038
766.877518,0.000038
767.570117,0.000038
768.267142,0.000038
768.933879,0.000038
769.615017,0.000038
770.283190,0.000038
771.022045,0.000038
771.671563,0.000038
772.348756,0.000038
773.051890,0.000038
773.722294,0.000038
774.482793,0.000038
775.089327,0.000038
775.809267,0.000038
776.459981,0.000038
777.137155,0.000038
777.840941,0.000038
778.509637,0.000038
779.188305,0.000038
779.865185,0.000038
780.542049,0.000038
781.251097,0.000038
781.908436,0.000038
782.609963,0.000039
783.274263,0.000039
783.948395,0.000039
784.662762,0.000039
785.311382,0.000039
785.996159,0.000039
786.660486,0.000039
787.363138,0.000039
788.050854,0.000038
788.699633,0.000039
789.386102,0.000039
790.089378,0.000039
790.736418,0.000039
791.433481,0.000039
792.098217,0.000039
792.785943,0.000039
793.448055,0.000039
794.125530,0.000039
794.839539,0.000039
795.493423,0.000039
796.186283,0.000039
796.845725,0.000039
797.523879,0.000039
798.208024,0.000039
798.867485,0.000039
799.556616,0.000039
800.230424,0.000039
