Wavelength (nm),Intensity (uW)
350.180557,0.000048
350.553885,0.000048
351.291240,0.000049
352.063920,0.000049
352.871102,0.000050
353.622357,0.000050
354.390168,0.000051
355.161555,0.000051
355.948056,0.000051
356.693161,0.000052
357.525645,0.000052
358.248846,0.000052
359.016565,0.000052
359.794938,0.000052
360.577791,0.000053
361.344184,0.000053
362.108593,0.000053
362.877629,0.000053
363.660810,0.000053
364.426959,0.000053
365.229922,0.000053
365.970198,0.000054
366.775650,0.000054
367.502485,0.000054
368.304598,0.000055
369.062076,0.000055
369.835322,0.000055
370.598170,0.000055
371.367923,0.000056
372.152306,0.000056
372.921253,0.000056
373.682096,0.000056
374.445079,0.000056
375.231357,0.000056
376.010313,0.000056
376.766963,0.000056
377.536940,0.000056
378.314316,0.000056
379.106307,0.000056
379.850447,0.000056
380.647133,0.000056
381.376933,0.000055
382.169312,0.000055
382.916634,0.000055
383.703548,0.000056
384.465629,0.000056
385.231507,0.000056
385.991154,0.000056
386.787002,0.000056
387.533626,0.000056
388.313485,0.000056
389.074137,0.000056
389.849674,0.000056
390.626497,0.000056
391.376044,0.000056
392.182254,0.000056
392.918267,0.000056
393.694271,0.000056
394.463687,0.000056
395.213131,0.000056
395.992370,0.000056
396.764540,0.000056
397.522887,0.000056
398.288938,0.000056
399.050880,0.000056
399.835462,0.000056
400.599595,0.000056
401.365267,0.000056
402.131103,0.000056
402.897650,0.000056
403.667701,0.000056
404.423921,0.000056
405.193331,0.000056
405.961164,0.000056
406.724631,0.000056
407.495112,0.000056
408.259763,0.000056
409.022368,0.000056
409.786000,0.000056
410.565921,0.000056
411.315421,0.000056
412.085615,0.000056
412.843160,0.000056
413.639542,0.000056
414.388810,0.000056
415.153557,0.000056
415.918195,0.000056
416.677858,0.000056
417.452479,0.000056
418.216264,0.000056
418.968316,0.000056
419.752859,0.000055
420.486091,0.000055
421.263961,0.000055
422.034934,0.000055
422.824289,0.000055
423.551642,0.000055
424.338420,0.000055
425.094478,0.000055
425.836309,0.000055
426.619953,0.000055
427.366726,0.000055
428.137139,0.000055
428.908671,0.000055
429.674706,0.000055
430.432701,0.000055
431.175667,0.000055
431.945337,0.000055
432.710529,0.000055
433.486148,0.000055
434.243441,0.000055
434.989154,0.000055
435.755461,0.000055
436.511402,0.000054
437.300434,0.000054
438.031747,0.000054
438.804061,0.000054
439.564284,0.000054
440.360280,0.000054
441.084238,0.000054
441.849343,0.000054
442.609860,0.000054
443.377908,0.000054
444.139334,0.000054
444.903174,0.000054
445.641053,0.000054
446.414547,0.000054
447.160736,0.000054
447.927055,0.000054
448.702013,0.000054
449.454435,0.000054
450.200294,0.000054
450.954841,0.000054
451.739856,0.000054
452.497106,0.000054
453.245783,0.000054
454.006304,0.000054
454.768712,0.000054
455.518557,0.000054
456.299399,0.000053
457.023664,0.000054
457.786800,0.000054
458.553242,0.000054
459.308162,0.000054
460.052975,0.000054
460.823174,0.000054
461.578483,0.000054
462.333129,0.000054
463.094523,0.000054
463.859874,0.000054
464.610320,0.000053
465.379162,0.000053
466.120941,0.000053
466.876916,0.000053
467.643018,0.000053
468.386854,0.000053
469.150930,0.000052
469.900747,0.000052
470.651896,0.000052
471.427405,0.000052
472.166066,0.000051
472.925515,0.000050
473.682074,0.000050
474.437667,0.000049
475.204524,0.000049
475.945071,0.000049
476.711453,0.000048
477.477342,0.000048
478.223082,0.000048
478.998889,0.000047
479.731122,0.000047
480.484362,0.000047
481.228588,0.000046
482.032234,0.000046
482.751250,0.000047
483.497873,0.000047
484.258647,0.000047
485.022663,0.000047
485.749596,0.000047
486.531444,0.000048
487.281970,0.000048
488.010082,0.000048
488.771714,0.000048
489.521254,0.000049
490.329156,0.000049
491.028916,0.000049
491.793869,0.000050
492.543925,0.000050
493.319053,0.000051
494.048361,0.000051
494.791513,0.000051
495.555020,0.000051
496.315835,0.000051
497.041718,0.000051
497.789534,0.000051
498.560069,0.000052
499.321542,0.000052
500.050046,0.000052
500.804841,0.000052
501.548085,0.000052
502.324752,0.000052
503.044367,0.000052
503.788615,0.000052
504.551676,0.000052
505.348236,0.000052
506.040360,0.000052
506.807119,0.000052
507.534622,0.000052
508.307688,0.000052
509.044383,0.000052
509.802942,0.000052
510.550072,0.000052
511.282283,0.000052
512.037779,0.000052
512.813787,0.000052
513.542350,0.000052
514.293560,0.000052
515.036475,0.000052
515.787162,0.000052
516.553551,0.000052
517.265455,0.000052
518.028635,0.000052
518.776407,0.000052
519.503386,0.000052
520.305655,0.000052
521.012291,0.000052
521.791111,0.000052
522.503905,0.000052
523.252121,0.000053
524.019393,0.000052
524.743780,0.000052
525.489983,0.000052
526.249730,0.000052
526.979425,0.000052
527.738704,0.000052
528.472987,0.000052
529.216869,0.000052
529.960801,0.000052
530.714587,0.000052
531.465553,0.000052
532.206178,0.000052
532.947748,0.000052
533.693393,0.000052
534.429799,0.000052
535.195217,0.000052
535.915534,0.000052
536.661452,0.000052
537.403011,0.000051
538.151362,0.000051
538.916106,0.000051
539.637331,0.000051
540.410164,0.000051
541.113971,0.000051
541.866261,0.000051
542.623254,0.000051
543.348515,0.000051
544.093730,0.000051
544.820646,0.000051
545.566978,0.000051
546.336540,0.000051
547.065590,0.000051
547.789726,0.000051
548.545181,0.000051
549.296364,0.000051
550.017080,0.000051
550.778329,0.000051
551.509854,0.000051
552.245818,0.000051
552.987253,0.000051
553.744338,0.000051
554.465869,0.000051
555.194984,0.000051
555.932665,0.000051
556.701291,0.000051
557.431359,0.000051
558.160419,0.000051
558.915072,0.000051
559.640162,0.000051
560.383185,0.000051
561.135440,0.000051
561.856078,0.000050
562.604382,0.000050
563.333077,0.000051
564.072306,0.000051
564.841784,0.000051
565.549213,0.000051
566.294853,0.000051
567.029048,0.000051
567.752647,0.000051
568.519895,0.000051
569.230998,0.000051
569.961009,0.000051
570.722017,0.000051
571.443063,0.000052
572.210023,0.000052
572.915637,0.000052
573.685296,0.000052
574.391152,0.000052
575.127118,0.000052
575.876613,0.000052
576.593537,0.000052
577.331453,0.000052
578.075928,0.000052
578.810958,0.000052
579.542410,0.000052
580.270222,0.000052
581.003496,0.000052
581.743442,0.000052
582.462472,0.000052
583.220045,0.000052
583.942707,0.000052
584.671311,0.000052
585.449507,0.000052
586.142164,0.000052
586.886442,0.000052
587.611549,0.000052
588.355165,0.000052
589.076672,0.000053
589.807509,0.000053
590.548962,0.000053
591.271815,0.000053
591.985793,0.000052
592.746126,0.000053
593.468814,0.000053
594.214490,0.000052
594.937586,0.000052
595.657776,0.000052
596.401484,0.000052
597.134350,0.000052
597.887315,0.000052
598.592346,0.000052
599.311956,0.000052
600.047630,0.000051
600.779991,0.000051
601.526627,0.000051
602.240370,0.000052
602.984368,0.000052
603.684821,0.000051
604.442666,0.000052
605.164074,0.000052
605.893650,0.000051
606.654935,0.000051
607.334114,0.000051
608.067918,0.000051
608.838757,0.000051
609.525686,0.000051
610.248711,0.000051
611.007201,0.000051
611.707283,0.000051
612.475166,0.000051
613.153869,0.000051
613.907304,0.000051
614.615549,0.000051
615.362300,0.000051
616.137386,0.000051
616.797376,0.000051
617.539754,0.000051
618.254412,0.000051
618.996448,0.000051
619.722613,0.000051
620.433500,0.000051
621.169441,0.000051
621.886217,0.000050
622.613352,0.000051
623.355473,0.000051
624.046598,0.000050
624.794794,0.000051
625.499903,0.000051
626.226281,0.000050
626.960480,0.000050
627.681438,0.000051
628.399582,0.000051
629.106821,0.000051
629.852356,0.000051
630.577853,0.000051
631.292915,0.000051
632.047583,0.000051
632.753287,0.000051
633.460245,0.000051
634.209363,0.000051
634.908168,0.000051
635.647614,0.000051
636.336430,0.000051
637.066415,0.000052
637.806049,0.000052
638.514506,0.000051
639.230500,0.000051
639.952650,0.000051
640.681648,0.000051
641.442966,0.000051
642.128801,0.000051
642.835619,0.000051
643.551653,0.000051
644.279960,0.000051
644.992664,0.000051
645.729334,0.000051
646.421047,0.000051
647.154216,0.000051
647.872385,0.000051
648.593011,0.000052
649.320656,0.000051
650.035838,0.000051
650.763723,0.000051
651.466010,0.000051
652.185381,0.000051
652.899833,0.000051
653.619462,0.000051
654.339848,0.000051
655.039140,0.000051
655.798640,0.000051
656.479457,0.000052
657.205370,0.000052
657.918848,0.000052
658.628845,0.000052
659.354031,0.000052
660.051530,0.000052
660.790329,0.000052
661.507566,0.000052
662.224639,0.000052
662.917197,0.000052
663.630569,0.000052
664.372778,0.000052
665.069950,0.000052
665.778779,0.000052
666.526356,0.000052
667.225973,0.000052
667.916126,0.000052
668.645660,0.000052
669.351715,0.000051
670.063490,0.000052
670.779138,0.000052
671.506660,0.000052
672.204961,0.000052
672.919944,0.000052
673.622146,0.000052
674.344138,0.000052
675.052509,0.000052
675.769596,0.000052
676.469535,0.000052
677.197098,0.000051
677.895648,0.000051
678.616725,0.000052
679.350424,0.000052
680.028582,0.000052
680.738881,0.000051
681.455094,0.000052
682.187932,0.000052
682.878990,0.000052
683.597120,0.000052
684.294266,0.000052
685.011805,0.000052
685.717762,0.000052
686.413806,0.000052
687.136670,0.000052
687.840378,0.000052
688.537666,0.000052
689.257231,0.000052
689.962514,0.000052
690.670723,0.000052
691.376134,0.000052
692.084699,0.000052
692.783419,0.000052
693.490692,0.000052
694.235113,0.000052
694.904363,0.000052
695.615524,0.000052
696.345485,0.000052
697.027127,0.000052
697.746398,0.000052
698.437629,0.000052
699.147293,0.000052
699.861597,0.000052
700.568993,0.000052
701.258179,0.000052
701.968488,0.000052
702.670384,0.000052
703.379759,0.000052
704.094461,0.000052
704.786055,0.000052
705.489618,0.000052
706.191557,0.000052
706.896307,0.000052
707.594602,0.000052
708.307344,0.000052
709.002696,0.000052
709.738308,0.000052
710.401169,0.000052
711.120920,0.000052
711.830867,0.000052
712.519233,0.000052
713.211269,0.000052
713.919665,0.000052
714.614752,0.000052
715.319865,0.000052
716.008941,0.000052
716.739681,0.000052
717.414949,0.000052
718.119217,0.000052
718.839060,0.000052
719.510313,0.000052
720.224138,0.000052
720.920413,0.000052
721.640272,0.000052
722.335131,0.000052
723.009143,0.000052
723.722744,0.000051
724.416554,0.000051
725.115233,0.000051
725.846167,0.000051
726.494307,0.000051
727.216663,0.000051
727.895266,0.000051
728.596065,0.000051
729.318473,0.000051
729.988819,0.000051
730.698438,0.000051
731.386847,0.000051
732.084077,0.000051
732.781330,0.000052
733.471534,0.000052
734.171078,0.000052
734.848670,0.000052
735.558699,0.000051
736.264486,0.000051
736.966887,0.000052
737.640420,0.000052
738.339800,0.000052
739.039394,0.000051
739.738034,0.000051
740.430008,0.000051
741.109351,0.000051
741.800194,0.000051
742.528556,0.000051
743.195848,0.000051
743.891764,0.000051
744.577961,0.000051
745.276230,0.000051
745.968404,0.000051
746.650919,0.000051
747.351907,0.000051
748.035863,0.000051
748.721597,0.000051
749.424884,0.000051
750.116979,0.000051
750.810700,0.000051
751.489328,0.000051
752.172264,0.000051
752.880195,0.000052
753.569806,0.000052
754.248262,0.000052
754.944431,0.000052
755.633749,0.000052
756.326609,0.000052
757.021388,0.000052
757.700417,0.000052
758.380182,0.000052
759.072954,0.000052
759.773057,0.000052
760.469536,0.000052
761.121116,0.000052
761.835963,0.000052
762.507292,0.000052
763.201460,0.000053
763.878041,0.000053
764.561407,0.000053
765.263055,0.000053
765.939732,0.000053
766.635514,0.000053
767.341603,0.000053
768.002342,0.000053
768.679335,0.000053
769.356163,0.000053
770.063536,0.000053
770.750049,0.000053
771.422159,0.000053
772.096326,0.000053
772.808085,0.000053
773.480873,0.000053
774.182656,0.000053
774.841394,0.000053
775.520555,0.000053
776.210859,0.000053
776.894712,0.000053
777.600275,0.000053
778.252969,0.000053
778.934784,0.000053
779.611691,0.000054
780.307833,0.000054
780.987182,0.000054
781.666056,0.000054
782.339603,0.000054
783.031252,0.000054
783.705728,0.000054
784.405146,0.000054
785.073511,0.000054
785.742173,0.000054
786.436523,0.000054
787.104237,0.000054
787.790476,0.000054
788.458485,0.000054
789.141460,0.000054
789.822828,0.000054
790.502243,0.000054
791.180863,0.000055
791.863013,0.000054
792.508559,0.000054
793.189705,0.000054
793.863654,0.000054
794.550596,0.000054
795.217797,0.000054
795.927562,0.000054
796.593936,0.000054
797.280626,0.000054
797.959959,0.000054
798.618984,0.000054
799.307264,0.000054
799.972082,0.000054
800.657438,0.000053
