Wavelength (nm),Intensity (uW)
355.599560,0.000149
356.040708,0.000148
356.724331,0.000148
357.536117,0.000148
358.413934,0.000149
359.052355,0.000149
359.829319,0.000147
360.642824,0.000148
361.418594,0.000148
362.256306,0.000146
362.906520,0.000147
363.695357,0.000147
364.499213,0.000147
365.277919,0.000147
366.136600,0.000146
366.775094,0.000146
367.552572,0.000146
368.357743,0.000146
369.132574,0.000147
369.998590,0.000147
370.635206,0.000146
371.444839,0.000146
372.209174,0.000146
372.984393,0.000147
373.832022,0.000146
374.481619,0.000146
375.295681,0.000146
376.071405,0.000146
376.811500,0.000146
377.710041,0.000146
378.332329,0.000146
379.141654,0.000146
379.911498,0.000145
380.673402,0.000146
381.529156,0.000146
382.179890,0.000145
382.992355,0.000145
383.765291,0.000146
384.535060,0.000145
385.414643,0.000145
386.032774,0.000145
386.841398,0.000145
387.613568,0.000145
388.362164,0.000145
389.261746,0.000145
389.866132,0.000145
390.650290,0.000145
391.459058,0.000145
392.224775,0.000145
393.088577,0.000145
393.711640,0.000145
394.485687,0.000145
395.296985,0.000145
396.044864,0.000145
396.925269,0.000145
397.550485,0.000146
398.336654,0.000146
399.134387,0.000145
399.894011,0.000145
400.781015,0.000146
401.387805,0.000145
402.148532,0.000144
402.956024,0.000144
403.733192,0.000145
404.584647,0.000144
405.222378,0.000143
406.034039,0.000144
406.798596,0.000144
407.554711,0.000144
408.416238,0.000145
409.050835,0.000145
409.845174,0.000144
410.634107,0.000144
411.396543,0.000144
412.285378,0.000144
412.876797,0.000144
413.648417,0.000145
414.440437,0.000144
415.226975,0.000144
416.079249,0.000144
416.710214,0.000145
417.479215,0.000145
418.269162,0.000145
419.016936,0.000145
419.913319,0.000145
420.522448,0.000144
421.311145,0.000144
422.112248,0.000144
422.856108,0.000144
423.746303,0.000144
424.332143,0.000144
425.134798,0.000145
425.918161,0.000145
426.679543,0.000144
427.554830,0.000143
428.150097,0.000144
428.956378,0.000144
429.715260,0.000144
430.486360,0.000144
431.346367,0.000144
431.964295,0.000144
432.773011,0.000144
433.539016,0.000144
434.289254,0.000145
435.185300,0.000145
435.776099,0.000145
436.583941,0.000145
437.343669,0.000146
438.103397,0.000146
438.948225,0.000145
439.589405,0.000146
440.349772,0.000145
441.154916,0.000145
441.909987,0.000146
442.752536,0.000145
443.387090,0.000145
444.188987,0.000146
444.955669,0.000146
445.709277,0.000146
446.555371,0.000146
447.190555,0.000146
447.990618,0.000146
448.752952,0.000146
449.508189,0.000146
450.386285,0.000146
450.987055,0.000146
451.762043,0.000145
452.548975,0.000146
453.302682,0.000146
454.174987,0.000146
454.782587,0.000147
455.549492,0.000147
456.350509,0.000147
457.062422,0.000146
457.935171,0.000146
458.577196,0.000147
459.371705,0.000148
460.134518,0.000148
460.888328,0.000148
461.732845,0.000148
462.370085,0.000148
463.156981,0.000149
463.917284,0.000150
464.688811,0.000150
465.458936,0.000149
466.148380,0.000149
466.920971,0.000149
467.700234,0.000149
468.454932,0.000149
469.263915,0.000148
469.925922,0.000148
470.688238,0.000148
471.487288,0.000148
472.247850,0.000148
473.109145,0.000148
473.707928,0.000148
474.476231,0.000148
475.256992,0.000148
476.024226,0.000149
476.858704,0.000149
477.486604,0.000149
478.257664,0.000149
479.042044,0.000149
479.782507,0.000149
480.676160,0.000149
481.254350,0.000150
482.040045,0.000151
482.789816,0.000151
483.548055,0.000151
484.411163,0.000153
485.017815,0.000153
485.819647,0.000152
486.571736,0.000153
487.319668,0.000153
488.159646,0.000154
488.783010,0.000155
489.578227,0.000155
490.315909,0.000155
491.082809,0.000155
491.955406,0.000154
492.546100,0.000154
493.338456,0.000154
494.092008,0.000153
494.830099,0.000152
495.658735,0.000151
496.308585,0.000151
497.074331,0.000151
497.855776,0.000151
498.606176,0.000152
499.434839,0.000151
500.063990,0.000152
500.831201,0.000152
501.601852,0.000152
502.351483,0.000152
503.199174,0.000152
503.812924,0.000152
504.603361,0.000152
505.357575,0.000152
506.099368,0.000152
506.959759,0.000152
507.558517,0.000151
508.345680,0.000151
509.086137,0.000152
509.853038,0.000152
510.724837,0.000151
511.317969,0.000152
512.095553,0.000152
512.846564,0.000152
513.597305,0.000151
514.439868,0.000151
515.046894,0.000151
515.830908,0.000151
516.579249,0.000152
517.336231,0.000153
518.160350,0.000152
518.787606,0.000151
519.576385,0.000150
520.327487,0.000150
521.071880,0.000151
521.908624,0.000151
522.513047,0.000151
523.295271,0.000150
524.064954,0.000149
524.800904,0.000149
525.649100,0.000149
526.250545,0.000149
527.039984,0.000148
527.752980,0.000147
528.515534,0.000147
529.379089,0.000147
529.986169,0.000147
530.764679,0.000147
531.509321,0.000146
532.245014,0.000146
533.107668,0.000147
533.691430,0.000147
534.464759,0.000149
535.221947,0.000150
535.965988,0.000151
536.822552,0.000152
537.413288,0.000151
538.195409,0.000150
538.947041,0.000149
539.681908,0.000149
540.537214,0.000150
541.128096,0.000151
541.893013,0.000151
542.662984,0.000153
543.395585,0.000153
544.274292,0.000152
544.841724,0.000153
545.611876,0.000152
546.410640,0.000150
547.108341,0.000149
547.953935,0.000149
548.551948,0.000150
549.331745,0.000152
550.077211,0.000152
550.829928,0.000153
551.633317,0.000156
552.254472,0.000157
553.012504,0.000158
553.788906,0.000159
554.518170,0.000159
555.371920,0.000158
555.948459,0.000158
556.724830,0.000158
557.473486,0.000156
558.216629,0.000155
559.057487,0.000153
559.654172,0.000152
560.413362,0.000151
561.172690,0.000150
561.910115,0.000149
562.751306,0.000149
563.348531,0.000148
564.092958,0.000148
564.831547,0.000149
565.608323,0.000149
566.438210,0.000149
567.034729,0.000150
567.813607,0.000151
568.524962,0.000151
569.286695,0.000151
570.147448,0.000152
570.714051,0.000153
571.494157,0.000153
572.245160,0.000153
572.970080,0.000154
573.784204,0.000156
574.400545,0.000157
575.155713,0.000157
575.919697,0.000159
576.646432,0.000161
577.474831,0.000164
578.814711,0.000166
579.580764,0.000167
580.322762,0.000165
581.156678,0.000161
581.748715,0.000160
582.523320,0.000159
583.257229,0.000158
583.987020,0.000182
584.781085,0.000350
586.170994,0.000449
586.920640,0.000568
587.643483,0.000709
588.422792,0.000835
589.817667,0.000824
590.568028,0.000789
591.314574,0.000702
592.126970,0.000571
592.741321,0.000455
593.487545,0.000419
594.247707,0.000447
594.970911,0.000497
595.736676,0.000582
596.401584,0.000714
597.160841,0.000830
597.901479,0.000856
598.621533,0.000790
599.424514,0.000695
600.051908,0.000595
600.797495,0.000469
601.530910,0.000350
602.281868,0.000299
603.066353,0.000300
603.702431,0.000309
604.460181,0.000322
605.198694,0.000350
605.902124,0.000378
606.765282,0.000417
607.344570,0.000489
608.107833,0.000580
608.831870,0.000756
609.562178,0.001009
610.404849,0.001363
611.712128,0.001440
612.475661,0.001437
613.166137,0.001389
613.993677,0.001389
614.620766,0.001466
615.360232,0.001629
616.123914,0.001872
616.868097,0.002121
617.577592,0.002231
618.267459,0.002105
618.988994,0.001836
619.728420,0.001491
620.468038,0.001092
621.271683,0.000757
621.880665,0.000601
622.633354,0.000577
623.369402,0.000592
624.091237,0.000639
624.855195,0.000668
625.505174,0.000673
626.257380,0.000727
626.991692,0.000828
627.703642,0.000943
628.499427,0.001066
629.119751,0.001190
629.877336,0.001255
630.606239,0.001195
631.318245,0.001063
632.137398,0.000949
632.732629,0.000951
633.471706,0.001049
634.213364,0.001189
634.926549,0.001373
635.731496,0.001533
636.342240,0.001570
637.100930,0.001509
637.815309,0.001524
638.532251,0.001674
639.328405,0.002058
639.946887,0.002761
640.740718,0.003599
641.391293,0.004367
642.105598,0.004811
642.968967,0.004367
644.274044,0.003477
645.040004,0.002456
645.736629,0.001595
646.527443,0.000915
647.148399,0.000395
647.878590,0.000174
648.627944,0.000157
649.312019,0.000226
650.129817,0.000475
650.746595,0.000856
651.493182,0.001253
652.211656,0.001680
652.928677,0.002126
653.742854,0.002427
654.331140,0.002452
655.056883,0.002274
655.791725,0.001993
656.522790,0.001613
657.324262,0.001149
657.914893,0.000767
658.632877,0.000586
659.375974,0.000543
660.097884,0.000596
660.899228,0.000741
661.486321,0.000938
662.231956,0.001084
662.935618,0.001124
663.665260,0.001028
664.459879,0.000838
665.067106,0.000641
665.813917,0.000453
666.531775,0.000332
667.246029,0.000446
668.047975,0.000757
668.641088,0.001099
669.379852,0.001444
670.095949,0.001748
670.806558,0.001946
671.595647,0.002000
672.204143,0.001939
672.944438,0.001837
673.666309,0.001711
674.371181,0.001514
675.153084,0.001305
675.755955,0.001101
676.483662,0.000877
677.211991,0.000641
677.937431,0.000401
678.720637,0.000223
679.314235,0.000153
680.032278,0.000148
680.769092,0.000147
681.485958,0.000147
682.288247,0.000147
682.869695,0.000147
683.591514,0.000147
684.325509,0.000147
685.007359,0.000147
685.809293,0.000148
686.415281,0.000149
687.158061,0.000150
687.872011,0.000148
688.572974,0.000148
689.337865,0.000149
689.956101,0.000149
690.700105,0.000150
691.403080,0.000187
692.113452,0.000368
692.876786,0.000695
693.495029,0.001057
694.232976,0.001400
694.944868,0.001693
695.627562,0.001843
696.401786,0.001728
697.023667,0.001438
697.759366,0.001102
698.470567,0.000740
699.172860,0.000402
699.951068,0.000204
700.555583,0.000160
701.287377,0.000195
701.993611,0.000670
702.700573,0.001930
703.495053,0.003591
704.073690,0.005360
704.810800,0.007088
705.502908,0.008177
706.182676,0.008365
706.953585,0.007495
707.588310,0.005849
708.285499,0.004116
709.017660,0.002418
709.731105,0.000969
710.531632,0.000264
711.100112,0.000165
711.837696,0.000157
712.539931,0.000153
713.238211,0.000151
714.048864,0.000151
714.609062,0.000150
715.342364,0.000151
716.033123,0.000167
716.743077,0.000214
717.535434,0.000283
718.111013,0.000351
718.829356,0.000419
719.549665,0.000467
720.234035,0.000478
721.025465,0.000447
721.614312,0.000386
722.340665,0.000321
723.047233,0.000381
723.738079,0.000801
724.507153,0.001523
725.103399,0.002277
725.832198,0.003023
726.539856,0.003611
727.229290,0.003815
728.021018,0.003556
728.591468,0.002918
729.294104,0.002135
730.020271,0.001346
730.714344,0.000634
731.507733,0.000230
732.074653,0.000153
732.804695,0.000150
733.507845,0.000150
734.193892,0.000150
734.959280,0.000149
735.556760,0.000149
736.273351,0.000149
736.979830,0.000148
737.666641,0.000148
738.429621,0.000148
739.023815,0.000149
739.756512,0.000149
740.450092,0.000148
741.143589,0.000149
741.920848,0.000151
742.496585,0.000204
743.220140,0.000360
743.907151,0.000571
744.604462,0.000785
745.367815,0.000988
745.963671,0.001133
746.652075,0.001182
747.370713,0.001094
748.073202,0.000911
748.826278,0.000721
749.415318,0.000531
750.136500,0.000378
750.825889,0.000316
751.526258,0.000310
752.282749,0.000307
752.863926,0.000304
753.558229,0.000308
754.312876,0.000319
754.964891,0.000333
755.746377,0.000348
756.311359,0.000357
757.019127,0.000347
757.721752,0.000315
758.412232,0.000270
759.161200,0.000224
759.753343,0.000184
760.475574,0.000158
761.164028,0.000150
761.846266,0.000149
762.642799,0.000149
763.191038,0.000149
763.916066,0.000148
764.583503,0.000148
765.264902,0.000148
766.046436,0.000148
766.623219,0.000149
767.333511,0.000149
768.035083,0.000148
768.723639,0.000148
769.477998,0.000149
770.043147,0.000149
770.736909,0.000149
771.453773,0.000149
772.133385,0.000148
772.878263,0.000148
773.468815,0.000148
774.182150,0.000148
774.872597,0.000148
775.551505,0.000148
776.282064,0.000147
776.881207,0.000147
777.602461,0.000147
778.282194,0.000148
778.969004,0.000147
779.715350,0.000147
780.305856,0.000146
781.000688,0.000147
781.689108,0.000147
782.372638,0.000147
783.125880,0.000147
783.695179,0.000147
784.390023,0.000148
785.086910,0.000148
785.770983,0.000147
786.507881,0.000147
787.096965,0.000147
787.802249,0.000147
788.481464,0.000148
789.167821,0.000147
789.893932,0.000147
790.493447,0.000148
791.196602,0.000147
791.860171,0.000147
792.550482,0.000147
793.313257,0.000149
793.873591,0.000153
794.593465,0.000157
795.266191,0.000160
795.944163,0.000162
796.689580,0.000164
797.259155,0.000161
797.949103,0.000158
798.643189,0.000155
799.313094,0.000152
800.057988,0.000148
0.000000,0.000000
0.000000,0.000000
0.000000,0.000000
0.000000,0.000000
0.000000,0.000000
0.000000,0.000000
0.000000,0.000000
0.000000,0.000000
0.000000,0.000000
0.000000,0.000000
0.000000,0.000000
