Wavelength (nm),Intensity (uW)
352.125452,0.000202
352.754226,0.000202
353.503754,0.000202
354.277347,0.000202
355.071142,0.000202
355.839337,0.000201
356.567278,0.000201
357.358263,0.000202
358.166730,0.000201
358.933686,0.000200
360.286178,0.000200
360.420552,0.000201
361.226630,0.000201
361.992310,0.000200
362.792710,0.000202
363.568273,0.000202
364.292474,0.000202
365.109965,0.000202
365.904038,0.000200
366.622956,0.000200
367.517902,0.000200
368.148027,0.000201
368.937242,0.000201
369.739705,0.000200
370.513239,0.000201
371.289136,0.000201
372.000923,0.000200
372.797674,0.000200
373.607485,0.000201
374.328378,0.000202
375.133712,0.000200
375.857078,0.000201
376.652444,0.000201
377.441861,0.000200
378.219687,0.000200
378.990992,0.000201
379.719597,0.000202
380.521033,0.000201
381.297297,0.000200
382.148188,0.000201
382.790975,0.000201
383.579433,0.000201
384.373361,0.000201
385.148307,0.000201
385.977467,0.000201
386.632166,0.000200
387.421044,0.000201
388.214061,0.000201
388.984915,0.000200
389.833443,0.000199
390.479680,0.000200
391.296472,0.000201
392.049041,0.000201
392.824292,0.000200
393.662828,0.000200
394.319402,0.000200
395.136625,0.000200
395.909826,0.000200
396.659388,0.000200
397.532079,0.000200
398.155453,0.000200
398.950906,0.000201
399.741522,0.000202
400.497719,0.000201
401.360549,0.000201
401.992632,0.000200
402.778947,0.000200
403.574845,0.000200
404.340079,0.000200
405.153863,0.000200
405.826400,0.000200
406.630617,0.000200
407.407913,0.000201
408.167556,0.000201
408.992437,0.000200
409.656844,0.000201
410.456775,0.000201
411.225046,0.000200
411.987349,0.000199
412.839607,0.000199
413.481907,0.000200
414.259301,0.000200
415.066310,0.000201
415.817175,0.000202
416.658494,0.000201
417.303805,0.000200
418.111333,0.000201
418.883235,0.000200
419.642482,0.000199
420.472632,0.000200
421.126962,0.000201
421.940007,0.000200
422.699419,0.000200
423.461989,0.000200
424.361039,0.000200
424.954535,0.000200
425.719210,0.000199
426.514221,0.000200
427.275117,0.000199
428.119147,0.000200
428.764252,0.000200
429.532073,0.000200
430.321716,0.000200
431.096693,0.000200
431.926922,0.000200
432.570135,0.000201
433.356716,0.000202
434.154840,0.000201
434.894077,0.000200
435.746063,0.000199
436.381877,0.000200
437.183963,0.000201
437.902304,0.000201
438.708510,0.000201
439.539816,0.000200
440.189799,0.000200
440.972856,0.000200
441.756187,0.000200
442.516394,0.000200
443.350275,0.000201
443.992783,0.000201
444.799476,0.000201
445.559858,0.000200
446.314016,0.000200
447.147077,0.000199
447.791943,0.000199
448.585174,0.000201
449.359613,0.000201
450.112924,0.000200
450.950022,0.000199
451.593026,0.000199
452.366425,0.000200
453.164697,0.000199
453.914424,0.000199
454.751932,0.000199
455.380239,0.000200
456.155293,0.000199
456.946899,0.000199
457.695035,0.000199
458.566137,0.000198
459.173841,0.000199
459.948190,0.000200
460.726002,0.000200
461.493535,0.000199
462.342095,0.000199
462.963498,0.000200
463.760252,0.000201
464.476313,0.000200
465.261629,0.000199
466.104864,0.000200
466.747821,0.000200
467.549671,0.000199
468.302058,0.000200
469.061012,0.000201
469.890029,0.000200
470.529320,0.000200
471.327240,0.000201
472.083222,0.000199
472.838447,0.000199
473.669753,0.000200
474.306158,0.000200
475.104117,0.000200
475.831078,0.000200
476.618143,0.000199
477.470049,0.000200
478.085971,0.000200
478.880310,0.000200
479.623946,0.000201
480.385330,0.000201
481.238912,0.000200
481.851501,0.000199
482.613531,0.000199
483.400749,0.000200
484.158581,0.000200
485.018962,0.000199
485.616557,0.000199
486.412589,0.000200
487.176891,0.000200
487.918581,0.000200
488.766128,0.000201
489.381486,0.000200
490.155456,0.000200
490.936583,0.000200
491.675310,0.000200
492.517326,0.000200
493.140999,0.000200
493.906728,0.000199
494.698911,0.000200
495.437905,0.000200
496.286483,0.000199
496.905773,0.000199
497.696946,0.000200
498.449559,0.000200
499.190607,0.000199
500.044383,0.000199
500.652041,0.000200
501.448751,0.000199
502.213388,0.000198
502.952447,0.000199
503.832261,0.000200
504.407594,0.000200
505.168662,0.000200
505.949805,0.000199
506.673444,0.000199
507.538883,0.000201
508.159978,0.000200
508.948873,0.000199
509.698569,0.000199
510.449392,0.000199
511.220891,0.000200
511.918830,0.000200
512.690622,0.000200
513.432208,0.000199
514.185382,0.000200
514.969849,0.000201
515.654054,0.000200
516.435171,0.000200
517.181955,0.000199
517.933863,0.000199
518.767098,0.000199
519.379809,0.000199
520.169514,0.000199
520.923974,0.000198
521.651467,0.000199
522.528759,0.000200
523.112631,0.000200
523.908633,0.000199
524.647625,0.000199
525.397677,0.000199
526.223536,0.000199
526.843911,0.000199
527.600976,0.000200
528.379980,0.000200
529.126453,0.000200
529.969035,0.000199
530.563548,0.000199
531.362029,0.000199
532.108508,0.000199
532.852190,0.000200
533.687746,0.000199
534.290320,0.000201
535.056212,0.000202
535.827578,0.000202
536.562170,0.000202
537.389857,0.000202
538.011103,0.000202
538.792470,0.000202
539.550085,0.000200
540.279513,0.000199
541.127593,0.000201
541.725391,0.000202
542.507682,0.000203
543.243783,0.000203
543.996763,0.000203
544.832090,0.000202
545.435019,0.000201
546.219145,0.000200
546.963444,0.000199
547.707245,0.000199
548.522810,0.000200
549.142960,0.000200
549.921888,0.000199
550.665560,0.000199
551.395971,0.000200
552.259212,0.000200
552.848182,0.000199
553.597367,0.000199
554.370088,0.000200
555.113389,0.000199
555.929834,0.000200
556.550579,0.000199
557.322640,0.000199
558.076670,0.000200
558.804124,0.000199
559.630950,0.000200
560.246618,0.000201
561.026395,0.000200
561.771226,0.000199
562.495683,0.000199
563.329070,0.000199
563.930166,0.000200
564.716498,0.000200
565.451618,0.000200
566.193812,0.000200
567.035793,0.000199
567.621323,0.000199
568.406245,0.000201
569.136462,0.000201
569.884171,0.000201
570.700896,0.000200
571.317329,0.000199
572.046549,0.000199
572.818807,0.000201
573.566356,0.000202
574.373378,0.000202
574.990159,0.000201
575.767417,0.000201
576.509631,0.000202
577.234352,0.000204
578.031074,0.000206
578.669404,0.000208
579.432772,0.000208
580.182260,0.000207
580.922850,0.000205
581.730692,0.000204
582.338982,0.000203
583.112779,0.000204
583.853625,0.000204
584.581628,0.000207
585.407338,0.000235
586.008587,0.000303
586.817173,0.000390
587.479450,0.000478
588.205381,0.000552
589.045185,0.000574
590.403768,0.000554
591.174455,0.000518
591.898759,0.000455
592.723441,0.000382
593.322650,0.000313
594.081975,0.000259
594.799980,0.000275
595.521791,0.000364
596.281249,0.000475
596.982413,0.000582
597.714639,0.000630
598.456168,0.000591
599.173285,0.000510
599.936507,0.000433
600.635762,0.000362
601.363752,0.000308
602.115618,0.000276
602.864107,0.000250
603.643194,0.000247
604.283900,0.000269
605.054856,0.000305
605.778996,0.000333
606.509078,0.000334
607.305534,0.000320
607.931398,0.000340
608.681265,0.000402
609.421711,0.000506
610.144877,0.000680
610.934453,0.000838
611.570381,0.000922
612.344140,0.000956
613.041479,0.000880
613.782247,0.000711
614.586707,0.000636
615.201008,0.000725
615.963431,0.000922
616.673683,0.001209
617.449690,0.001397
618.902934,0.001202
619.555232,0.000950
620.315103,0.000650
621.051224,0.000432
621.863980,0.000344
622.458375,0.000331
623.195304,0.000387
623.946932,0.000471
624.671485,0.000529
625.469962,0.000510
626.080312,0.000439
626.840706,0.000417
627.561577,0.000479
628.276420,0.000614
629.093764,0.000787
629.698382,0.000879
630.458985,0.000823
631.188861,0.000697
631.902462,0.000575
632.704070,0.000481
633.317078,0.000487
634.073069,0.000610
634.803359,0.000774
635.499570,0.000939
636.313452,0.001056
636.925366,0.001014
637.660810,0.000834
638.400737,0.000714
639.124766,0.000771
639.928814,0.001005
640.530896,0.001552
641.272685,0.002250
642.007558,0.002728
642.709177,0.002942
643.461480,0.002765
644.132926,0.002146
644.865072,0.001434
645.601457,0.000843
646.324712,0.000406
647.129639,0.000223
647.725705,0.000205
648.482310,0.000205
649.206648,0.000205
649.914360,0.000208
650.710659,0.000292
651.317943,0.000526
652.060062,0.000842
652.783044,0.001171
653.510801,0.001455
654.308650,0.001538
654.907138,0.001405
655.661458,0.001209
656.377398,0.000974
657.095203,0.000732
657.890383,0.000552
658.489466,0.000401
659.225399,0.000275
659.955772,0.000262
660.666876,0.000385
661.464833,0.000559
662.069173,0.000733
662.814063,0.000834
663.536769,0.000788
664.244421,0.000640
665.060129,0.000463
665.640528,0.000306
666.362016,0.000222
667.100622,0.000208
667.816000,0.000278
668.608196,0.000483
669.219727,0.000766
669.957659,0.001064
670.654138,0.001265
671.381646,0.001248
672.167071,0.001114
672.769292,0.001004
673.520364,0.000933
674.226662,0.000941
674.950078,0.000951
675.736196,0.000832
676.334539,0.000637
677.062552,0.000433
677.790840,0.000273
678.496106,0.000207
679.301733,0.000201
679.886338,0.000202
680.609150,0.000202
681.351111,0.000201
682.054643,0.000202
682.820908,0.000203
683.441980,0.000202
684.176778,0.000202
684.905320,0.000201
685.602585,0.000201
686.413292,0.000202
686.985189,0.000202
687.722757,0.000201
688.414329,0.000201
689.130536,0.000201
689.929005,0.000201
690.528725,0.000202
691.247061,0.000202
691.980248,0.000203
692.680205,0.000254
693.470522,0.000442
694.060875,0.000729
694.799854,0.001019
695.510807,0.001234
696.213562,0.001231
697.003430,0.001009
697.590893,0.000714
698.308284,0.000432
699.039974,0.000252
699.739863,0.000206
700.520210,0.000203
701.118916,0.000205
701.854634,0.000210
702.564106,0.000271
703.264030,0.000771
704.044995,0.001933
704.643886,0.003372
705.365948,0.004666
706.074090,0.005285
706.795828,0.004733
707.509517,0.003452
708.162798,0.002073
708.892811,0.000879
709.593454,0.000302
710.308008,0.000216
711.084920,0.000207
711.671172,0.000204
712.398782,0.000202
713.108046,0.000202
713.808795,0.000202
714.583808,0.000202
715.176249,0.000202
715.895321,0.000202
716.625511,0.000203
717.319757,0.000222
718.051167,0.000269
718.677042,0.000328
719.418616,0.000387
720.117428,0.000416
720.810363,0.000396
721.603919,0.000345
722.172769,0.000286
722.905954,0.000235
723.609416,0.000216
724.299745,0.000373
725.099403,0.000820
725.665905,0.001413
726.405824,0.002021
727.096374,0.002400
727.796043,0.002303
728.568604,0.001845
729.153918,0.001227
729.846199,0.000623
730.591822,0.000278
731.261002,0.000205
732.049327,0.000203
732.633612,0.000203
733.361311,0.000202
734.058761,0.000201
734.753019,0.000202
735.539506,0.000202
736.116585,0.000202
736.829826,0.000202
737.537434,0.000202
738.233317,0.000202
739.040853,0.000202
739.584592,0.000203
740.297366,0.000202
740.989576,0.000202
741.693779,0.000204
742.473488,0.000204
743.056492,0.000208
743.777995,0.000266
744.475031,0.000408
745.167316,0.000586
745.919388,0.000754
746.516292,0.000843
747.242584,0.000789
747.931679,0.000633
748.631156,0.000457
749.395801,0.000320
749.974436,0.000273
750.699115,0.000291
751.385393,0.000306
752.080697,0.000301
752.825890,0.000277
753.427905,0.000256
754.146811,0.000255
754.843449,0.000276
755.529229,0.000310
756.279166,0.000334
756.868353,0.000332
757.561074,0.000305
758.279502,0.000268
758.969610,0.000232
759.738064,0.000210
760.310357,0.000202
761.011627,0.000201
761.694662,0.000200
762.409713,0.000199
763.207425,0.000199
763.744688,0.000200
764.446109,0.000199
765.158583,0.000199
765.831500,0.000201
766.607342,0.000201
767.177365,0.000200
767.901439,0.000200
768.586114,0.000200
769.263563,0.000199
770.019523,0.000200
770.601435,0.000201
771.325551,0.000200
771.980872,0.000199
772.685541,0.000199
773.479198,0.000201
774.022889,0.000199
774.731026,0.000198
775.421084,0.000200
776.115464,0.000200
776.871528,0.000201
777.437911,0.000201
778.127486,0.000200
778.838238,0.000200
779.512192,0.000199
780.285245,0.000200
780.843412,0.000200
781.541201,0.000200
782.241725,0.000201
782.916880,0.000201
783.704954,0.000200
784.249912,0.000200
784.947449,0.000200
785.648243,0.000201
786.321816,0.000201
787.039735,0.000201
787.642968,0.000201
788.335977,0.000200
789.042019,0.000201
789.713554,0.000202
790.473025,0.000201
791.039796,0.000201
791.735176,0.000201
792.425616,0.000200
793.103205,0.000200
793.877425,0.000201
794.428426,0.000203
795.117533,0.000207
795.806253,0.000211
796.497633,0.000212
797.254388,0.000210
797.813250,0.000208
798.493422,0.000205
799.199769,0.000203
799.870518,0.000201
800.624775,0.000199

