Wavelength (nm),Intensity (uW)
352.125196,0.000083
352.637497,0.000083
353.386446,0.000083
354.148154,0.000083
354.927033,0.000083
355.723226,0.000083
356.482709,0.000083
357.268056,0.000082
358.021012,0.000083
358.791002,0.000082
359.627634,0.000082
360.335619,0.000082
361.127881,0.000082
361.884483,0.000082
362.667089,0.000082
363.462532,0.000082
364.199585,0.000082
364.987535,0.000082
365.747173,0.000082
366.529822,0.000081
367.315257,0.000081
368.062485,0.000081
368.827477,0.000081
369.607808,0.000081
370.391920,0.000081
371.156011,0.000081
371.926413,0.000081
372.688846,0.000081
373.457545,0.000081
374.220418,0.000082
375.020951,0.000082
375.777461,0.000082
376.534408,0.000083
377.313300,0.000083
378.093455,0.000084
378.885063,0.000084
379.630688,0.000084
380.390221,0.000084
381.168721,0.000085
381.921401,0.000085
382.709253,0.000085
383.467760,0.000086
384.249835,0.000086
385.016937,0.000086
385.783974,0.000086
386.561888,0.000086
387.321733,0.000086
388.075178,0.000086
388.856877,0.000086
389.618702,0.000086
390.391188,0.000086
391.167769,0.000086
391.921422,0.000086
392.689621,0.000086
393.462879,0.000087
394.241749,0.000087
394.995915,0.000087
395.768213,0.000087
396.533368,0.000087
397.294743,0.000087
398.071102,0.000087
398.829014,0.000087
399.592678,0.000087
400.363650,0.000087
401.143214,0.000087
401.903716,0.000086
402.674666,0.000086
403.442595,0.000086
404.197810,0.000086
404.965823,0.000086
405.737093,0.000086
406.497072,0.000086
407.274163,0.000086
408.031863,0.000086
408.804905,0.000086
409.588273,0.000086
410.321328,0.000086
411.097708,0.000086
411.857560,0.000086
412.631281,0.000086
413.400284,0.000086
414.153038,0.000086
414.958911,0.000086
415.686670,0.000086
416.480169,0.000086
417.228059,0.000086
417.990982,0.000086
418.746811,0.000086
419.514653,0.000086
420.311391,0.000086
421.036398,0.000086
421.810799,0.000086
422.575191,0.000086
423.330967,0.000086
424.116807,0.000086
424.873702,0.000086
425.619335,0.000086
426.383621,0.000086
427.161061,0.000086
427.907350,0.000086
428.688506,0.000086
429.439261,0.000086
430.193661,0.000086
430.963598,0.000086
431.723185,0.000086
432.497765,0.000086
433.253647,0.000086
434.014643,0.000086
434.775549,0.000086
435.541769,0.000086
436.306568,0.000086
437.056785,0.000086
437.812907,0.000086
438.573926,0.000086
439.346883,0.000085
440.094009,0.000085
440.866822,0.000085
441.609918,0.000085
442.377313,0.000085
443.161984,0.000084
443.889648,0.000084
444.681951,0.000084
445.423177,0.000084
446.172952,0.000084
446.961863,0.000084
447.697602,0.000084
448.465093,0.000084
449.209533,0.000084
450.000927,0.000084
450.755150,0.000084
451.499319,0.000084
452.258686,0.000084
453.022327,0.000084
453.777555,0.000084
454.561955,0.000084
455.291448,0.000084
456.054341,0.000084
456.809511,0.000084
457.564728,0.000084
458.344047,0.000084
459.082710,0.000084
459.843190,0.000084
460.596106,0.000084
461.348805,0.000084
462.116057,0.000084
462.889841,0.000084
463.617159,0.000084
464.401661,0.000084
465.142863,0.000084
465.904910,0.000084
466.660047,0.000084
467.410214,0.000084
468.155070,0.000083
468.928133,0.000083
469.689854,0.000083
470.439027,0.000083
471.198958,0.000083
471.948547,0.000083
472.711288,0.000083
473.469926,0.000083
474.216700,0.000083
474.969480,0.000083
475.726256,0.000083
476.495153,0.000083
477.244625,0.000083
478.022503,0.000084
478.744294,0.000084
479.515547,0.000084
480.257628,0.000084
481.038872,0.000084
481.747964,0.000084
482.530959,0.000084
483.260831,0.000084
484.034558,0.000084
484.806717,0.000084
485.537946,0.000084
486.301980,0.000084
487.026017,0.000084
487.794543,0.000084
488.581336,0.000084
489.297579,0.000084
490.062596,0.000084
490.802597,0.000084
491.546097,0.000084
492.376482,0.000084
493.050800,0.000084
493.816687,0.000084
494.565967,0.000084
495.314092,0.000084
496.078552,0.000084
496.809089,0.000084
497.585135,0.000084
498.331066,0.000084
499.061650,0.000084
499.840880,0.000084
500.552754,0.000084
501.318283,0.000084
502.078736,0.000084
502.830870,0.000084
503.630370,0.000084
504.314692,0.000084
505.080127,0.000084
505.812676,0.000084
506.573714,0.000084
507.336320,0.000084
508.072957,0.000084
508.817425,0.000084
509.557909,0.000084
510.347664,0.000084
511.063633,0.000084
511.809584,0.000084
512.577015,0.000084
513.307813,0.000084
514.074920,0.000084
514.819221,0.000084
515.566058,0.000084
516.298149,0.000084
517.049301,0.000084
517.806940,0.000084
518.563730,0.000084
519.295787,0.000085
520.047533,0.000085
520.785954,0.000085
521.526527,0.000085
522.280655,0.000085
523.033550,0.000085
523.774888,0.000085
524.511898,0.000085
525.272821,0.000085
526.003292,0.000085
526.756326,0.000085
527.514478,0.000085
528.241480,0.000085
528.983984,0.000085
529.756416,0.000086
530.475756,0.000086
531.227456,0.000086
531.969116,0.000086
532.715881,0.000086
533.475662,0.000086
534.213329,0.000086
534.945152,0.000086
535.712496,0.000086
536.448436,0.000086
537.204331,0.000086
537.909936,0.000086
538.667900,0.000086
539.416067,0.000086
540.163314,0.000086
540.933473,0.000087
541.636967,0.000086
542.385496,0.000086
543.126811,0.000086
543.854025,0.000086
544.636606,0.000086
545.336667,0.000086
546.103837,0.000086
546.827071,0.000085
547.565238,0.000085
548.315130,0.000086
549.086419,0.000086
549.787363,0.000086
550.542898,0.000086
551.280329,0.000086
552.042088,0.000086
552.765731,0.000086
553.512076,0.000085
554.252139,0.000086
554.984309,0.000086
555.717255,0.000086
556.451631,0.000086
557.191834,0.000086
557.960554,0.000086
558.689859,0.000086
559.417205,0.000086
560.145638,0.000086
560.901949,0.000086
561.624316,0.000086
562.373206,0.000086
563.119246,0.000086
563.846593,0.000086
564.579202,0.000085
565.319796,0.000085
566.058803,0.000085
566.800693,0.000086
567.534940,0.000086
568.292083,0.000086
569.006955,0.000086
569.759515,0.000086
570.529127,0.000086
571.213037,0.000086
571.983327,0.000085
572.689737,0.000085
573.419738,0.000085
574.169648,0.000085
574.906740,0.000085
575.640096,0.000084
576.365833,0.000085
577.113173,0.000085
577.844755,0.000086
578.582412,0.000087
579.317033,0.000088
580.039962,0.000088
580.776414,0.000088
581.521986,0.000088
582.240295,0.000088
582.981931,0.000088
583.711580,0.000088
584.456533,0.000088
585.186747,0.000088
585.904295,0.000088
586.655307,0.000088
587.376439,0.000088
588.107155,0.000088
588.883689,0.000088
589.576021,0.000088
590.309051,0.000088
591.040344,0.000087
591.777067,0.000087
592.547689,0.000087
593.238910,0.000087
593.959633,0.000088
594.701962,0.000087
595.442706,0.000086
596.179078,0.000085
596.904845,0.000085
597.625865,0.000084
598.349046,0.000084
599.104276,0.000084
599.827437,0.000085
600.553235,0.000085
601.277895,0.000085
602.025641,0.000084
602.762188,0.000083
603.476416,0.000083
604.208642,0.000083
604.951983,0.000084
605.672583,0.000084
606.386990,0.000084
607.146039,0.000084
607.856282,0.000084
608.584220,0.000084
609.322347,0.000084
610.042158,0.000084
610.756796,0.000085
611.488245,0.000085
612.206120,0.000085
612.951870,0.000085
613.659401,0.000085
614.423172,0.000085
615.108639,0.000085
615.856943,0.000085
616.570618,0.000085
617.312264,0.000085
618.037235,0.000085
618.766591,0.000085
619.481778,0.000085
620.222795,0.000085
620.922468,0.000085
621.685901,0.000085
622.374096,0.000085
623.109423,0.000086
623.867225,0.000086
624.548163,0.000086
625.304575,0.000086
625.999228,0.000086
626.714549,0.000086
627.450260,0.000086
628.193599,0.000086
628.891826,0.000086
629.632355,0.000086
630.350087,0.000086
631.068812,0.000086
631.786977,0.000086
632.527087,0.000086
633.240443,0.000086
633.954110,0.000086
634.670410,0.000086
635.402378,0.000086
636.130807,0.000086
636.887003,0.000086
637.558488,0.000086
638.286753,0.000086
638.989740,0.000086
639.746084,0.000086
640.440064,0.000087
641.181094,0.000087
641.887593,0.000086
642.604759,0.000086
643.349114,0.000086
644.051134,0.000086
644.757513,0.000086
645.483618,0.000086
646.207828,0.000085
646.926516,0.000085
647.649714,0.000085
648.355970,0.000085
649.091310,0.000085
649.785705,0.000085
650.531529,0.000085
651.231058,0.000085
651.944858,0.000085
652.675748,0.000086
653.391821,0.000086
654.103313,0.000086
654.826609,0.000086
655.532067,0.000086
656.264587,0.000086
656.980555,0.000086
657.698876,0.000087
658.422186,0.000087
659.119698,0.000087
659.842161,0.000087
660.570739,0.000087
661.266672,0.000087
661.988108,0.000088
662.700262,0.000088
663.434090,0.000088
664.128734,0.000088
664.844749,0.000088
665.580671,0.000088
666.255112,0.000087
667.002641,0.000087
667.713520,0.000088
668.414424,0.000087
669.117715,0.000087
669.880841,0.000087
670.550323,0.000087
671.296650,0.000087
671.980029,0.000087
672.694011,0.000087
673.411849,0.000086
674.107482,0.000087
674.845442,0.000087
675.545386,0.000087
676.256682,0.000087
677.005215,0.000086
677.657741,0.000086
678.389035,0.000086
679.093228,0.000086
679.801902,0.000086
680.521719,0.000087
681.234338,0.000086
681.934879,0.000087
682.646258,0.000087
683.356750,0.000087
684.070173,0.000087
684.761898,0.000087
685.495189,0.000087
686.193343,0.000086
686.902708,0.000087
687.606577,0.000087
688.322930,0.000087
689.051852,0.000087
689.728335,0.000087
690.443134,0.000087
691.143159,0.000087
691.860261,0.000087
692.587006,0.000087
693.275126,0.000087
693.981925,0.000087
694.686298,0.000087
695.386001,0.000087
696.103343,0.000087
696.795047,0.000087
697.512486,0.000087
698.208754,0.000087
698.933051,0.000087
699.645145,0.000087
700.323924,0.000087
701.041926,0.000087
701.731983,0.000087
702.444998,0.000087
703.169795,0.000087
703.882046,0.000087
704.550097,0.000088
705.240022,0.000087
705.966555,0.000087
706.692761,0.000087
707.383999,0.000087
708.070241,0.000088
708.800382,0.000088
709.480145,0.000088
710.196272,0.000088
710.870152,0.000088
711.591722,0.000088
712.286975,0.000088
712.980772,0.000088
713.718096,0.000088
714.411770,0.000088
715.090985,0.000088
715.832015,0.000088
716.491711,0.000088
717.202432,0.000088
717.894770,0.000088
718.600649,0.000088
719.288757,0.000088
720.001237,0.000088
720.697656,0.000088
721.407326,0.000088
722.085419,0.000088
722.798506,0.000088
723.495291,0.000088
724.192723,0.000088
724.892582,0.000088
725.606708,0.000088
726.284799,0.000088
726.983543,0.000088
727.674237,0.000088
728.424149,0.000088
729.066764,0.000088
729.772971,0.000088
730.450716,0.000088
731.175747,0.000088
731.857232,0.000088
732.563166,0.000088
733.243835,0.000088
733.939295,0.000088
734.659921,0.000088
735.332026,0.000088
736.039325,0.000088
736.714070,0.000088
737.430286,0.000088
738.152584,0.000088
738.797791,0.000088
739.509961,0.000088
740.186833,0.000088
740.892086,0.000088
741.588946,0.000088
742.268630,0.000088
742.980688,0.000088
743.663196,0.000088
744.360610,0.000088
745.058752,0.000088
745.733517,0.000088
746.435779,0.000088
747.126825,0.000088
747.804312,0.000088
748.550384,0.000088
749.195585,0.000088
749.884769,0.000088
750.591231,0.000088
751.273134,0.000088
751.965127,0.000089
752.643935,0.000089
753.347101,0.000088
754.036868,0.000088
754.712836,0.000088
755.430724,0.000088
756.092170,0.000089
756.779272,0.000089
757.472088,0.000088
758.188912,0.000088
758.862395,0.000088
759.522232,0.000089
760.235827,0.000088
760.904186,0.000088
761.607781,0.000088
762.302267,0.000089
762.970666,0.000089
763.658811,0.000088
764.346950,0.000088
765.029681,0.000088
765.740554,0.000089
766.404741,0.000089
767.096756,0.000088
767.779766,0.000088
768.458970,0.000088
769.161399,0.000089
769.822137,0.000089
770.517518,0.000088
771.198825,0.000089
771.890888,0.000089
772.574144,0.000089
773.254644,0.000089
773.933884,0.000089
774.621150,0.000089
775.306713,0.000088
776.020913,0.000088
776.661632,0.000089
777.355479,0.000089
778.026690,0.000089
778.730717,0.000089
779.403385,0.000089
780.092009,0.000089
780.760896,0.000089
781.453076,0.000089
782.125128,0.000089
782.808818,0.000089
783.479000,0.000089
784.167833,0.000089
784.835364,0.000089
785.523625,0.000089
786.212054,0.000089
786.874939,0.000089
787.583189,0.000089
788.233517,0.000089
788.915102,0.000089
789.616755,0.000089
790.270213,0.000089
790.965458,0.000089
791.621281,0.000090
792.316621,0.000089
792.997179,0.000089
793.663317,0.000089
794.370970,0.000089
795.025112,0.000090
795.690742,0.000090
796.375805,0.000090
797.043306,0.000090
797.751732,0.000090
798.400157,0.000090
799.070777,0.000090
799.756722,0.000090
800.423354,0.000090
