Wavelength (nm),Intensity (uW)
353.086224,0.000155
353.517923,0.000155
354.848141,0.000155
355.006961,0.000155
355.838318,0.000155
356.642961,0.000155
357.368448,0.000155
358.143738,0.000155
358.910943,0.000156
359.724373,0.000156
360.463005,0.000156
361.233283,0.000156
362.005487,0.000156
362.782612,0.000156
363.583052,0.000156
364.321272,0.000156
365.101821,0.000156
365.875526,0.000156
366.638575,0.000156
367.444477,0.000156
368.178171,0.000156
368.949383,0.000156
369.729300,0.000156
370.495930,0.000155
371.275355,0.000155
371.993397,0.000155
372.767090,0.000155
373.538343,0.000155
374.305979,0.000155
375.096310,0.000155
375.849164,0.000156
376.621606,0.000156
377.391250,0.000156
378.162360,0.000156
378.994638,0.000156
379.746260,0.000156
380.512667,0.000156
381.280528,0.000156
382.044721,0.000156
382.854984,0.000157
383.587072,0.000157
384.358190,0.000157
385.133092,0.000157
385.890991,0.000157
386.683748,0.000158
387.430438,0.000158
388.197015,0.000158
388.970976,0.000158
389.733421,0.000159
390.542016,0.000159
391.280657,0.000160
392.052525,0.000161
392.818872,0.000161
393.580539,0.000162
394.372563,0.000164
395.126325,0.000165
395.896814,0.000167
396.652363,0.000169
397.426193,0.000171
398.207064,0.000174
398.957805,0.000178
399.720582,0.000182
400.489630,0.000188
401.260147,0.000194
402.056135,0.000202
402.792959,0.000211
403.544802,0.000222
404.320616,0.000235
405.089651,0.000250
405.882638,0.000268
406.617214,0.000288
407.390813,0.000314
408.146226,0.000344
408.920422,0.000378
409.680367,0.000418
410.451218,0.000464
411.209031,0.000517
411.977536,0.000579
412.745081,0.000651
413.532302,0.000734
414.273352,0.000832
415.032359,0.000945
415.809875,0.001070
416.575827,0.001210
417.361921,0.001369
418.087304,0.001548
418.858974,0.001752
419.624348,0.001980
420.383613,0.002228
421.185352,0.002508
421.914922,0.002824
422.689486,0.003172
423.441412,0.003547
424.212406,0.003952
424.985217,0.004391
425.724461,0.004867
426.503693,0.005379
427.257694,0.005932
428.026525,0.006544
428.815727,0.007206
429.551693,0.007908
430.318806,0.008644
431.069519,0.009426
431.845583,0.010262
432.636800,0.011153
433.372009,0.012088
434.122170,0.013081
434.904212,0.014155
435.653192,0.015300
436.441337,0.016510
437.153668,0.017771
437.929440,0.019092
438.707013,0.020496
439.454023,0.021986
440.263873,0.023545
440.979866,0.025200
441.727185,0.026927
442.506592,0.028654
443.268406,0.030339
444.019893,0.031909
444.792100,0.033323
445.553209,0.034549
446.315582,0.035521
447.085406,0.036187
447.782589,0.036533
448.585509,0.036531
449.342065,0.036155
450.115372,0.035419
450.866278,0.034353
451.632735,0.033016
452.376894,0.031453
453.145382,0.029714
453.897289,0.027935
454.660715,0.026134
455.420231,0.024338
456.181369,0.022637
456.939170,0.021067
457.684101,0.019653
458.456736,0.018380
459.199944,0.017231
459.975407,0.016189
460.704490,0.015257
461.491571,0.014392
462.236603,0.013571
463.003783,0.012808
463.754474,0.012103
464.518014,0.011449
465.267218,0.010836
466.025037,0.010257
466.793797,0.009698
467.533478,0.009159
468.291513,0.008634
469.053007,0.008124
469.815072,0.007639
470.564006,0.007187
471.319943,0.006771
472.070874,0.006387
472.786311,0.006040
473.579618,0.005724
474.323523,0.005439
475.060352,0.005185
475.858851,0.004962
476.609787,0.004769
477.363448,0.004599
478.118401,0.004449
478.878554,0.004314
479.624703,0.004194
480.382883,0.004085
481.150267,0.003989
481.903449,0.003903
482.643681,0.003829
483.402207,0.003767
484.142014,0.003717
484.933845,0.003680
485.655688,0.003657
486.411262,0.003646
487.166197,0.003650
487.916856,0.003668
488.658295,0.003704
489.424131,0.003756
490.179288,0.003827
490.931593,0.003914
491.683576,0.004020
492.454519,0.004142
493.227516,0.004280
493.923523,0.004435
494.696819,0.004609
495.435528,0.004798
496.212584,0.004999
496.939237,0.005210
497.697693,0.005433
498.452603,0.005672
499.204723,0.005927
499.983721,0.006195
500.685644,0.006470
501.447494,0.006760
502.195036,0.007069
502.949037,0.007382
503.719806,0.007696
504.442481,0.008014
505.174526,0.008335
505.954645,0.008660
506.690524,0.008988
507.474052,0.009317
508.186941,0.009660
508.933316,0.010013
509.688272,0.010365
510.452680,0.010715
511.189768,0.011062
511.941426,0.011409
512.637888,0.011755
513.440812,0.012099
514.179941,0.012434
514.953585,0.012768
515.684112,0.013105
516.413995,0.013430
517.176087,0.013741
517.926990,0.014047
518.707278,0.014349
519.404457,0.014646
520.167371,0.014938
520.910968,0.015219
521.657942,0.015496
522.430798,0.015770
523.141060,0.016033
523.895986,0.016284
524.647817,0.016527
525.385509,0.016765
526.141538,0.016995
526.885107,0.017217
527.619700,0.017435
528.368883,0.017648
529.125358,0.017854
529.893434,0.018053
530.604840,0.018243
531.346281,0.018423
532.083758,0.018597
532.846839,0.018764
533.620530,0.018925
534.324419,0.019080
535.080381,0.019231
535.818107,0.019376
536.556670,0.019516
537.332490,0.019649
538.054904,0.019776
538.795282,0.019898
539.542812,0.020016
540.277451,0.020129
541.047445,0.020238
541.750434,0.020343
542.517495,0.020441
543.247100,0.020533
543.994067,0.020621
544.772738,0.020703
545.474888,0.020781
546.222827,0.020858
546.938480,0.020930
547.655345,0.021000
548.470794,0.021067
549.186465,0.021130
549.907995,0.021189
550.665105,0.021243
551.400001,0.021295
552.168734,0.021343
552.867368,0.021387
553.626187,0.021428
554.363961,0.021468
555.097935,0.021506
555.883024,0.021540
556.576709,0.021571
557.327348,0.021599
558.069741,0.021623
558.799437,0.021645
559.599563,0.021665
560.268186,0.021682
561.021425,0.021697
561.763258,0.021709
562.481088,0.021717
563.277953,0.021722
563.978424,0.021724
564.710667,0.021724
565.455182,0.021722
566.184031,0.021718
566.939958,0.021711
567.665649,0.021699
568.400972,0.021685
569.139474,0.021668
569.883262,0.021649
570.643889,0.021627
571.346853,0.021603
572.059692,0.021576
572.817730,0.021546
573.550577,0.021514
574.310581,0.021477
575.023701,0.021438
575.766265,0.021396
576.526152,0.021352
577.230243,0.021305
577.980640,0.021255
578.706255,0.021202
579.441723,0.021148
580.174362,0.021091
580.901623,0.021030
581.649397,0.020968
582.379900,0.020904
583.110755,0.020837
583.840915,0.020767
584.580596,0.020694
585.355966,0.020619
586.051449,0.020543
586.777899,0.020464
587.504979,0.020378
588.252025,0.020291
588.995711,0.020203
589.713943,0.020114
590.447071,0.020024
591.165329,0.019931
591.909116,0.019836
592.674820,0.019740
593.363874,0.019641
594.101569,0.019537
594.836064,0.019431
595.577846,0.019323
596.248922,0.019215
596.986659,0.019106
597.768402,0.018994
598.492311,0.018879
599.216740,0.018765
599.940812,0.018649
600.688853,0.018528
601.417409,0.018407
602.149237,0.018284
602.866740,0.018160
603.625370,0.018036
604.330723,0.017908
605.063769,0.017776
605.792992,0.017644
606.520198,0.017510
607.249505,0.017373
607.975514,0.017236
608.698821,0.017100
609.439529,0.016966
610.149218,0.016832
610.912641,0.016696
611.615043,0.016557
612.326275,0.016416
613.075660,0.016274
613.782363,0.016130
614.559516,0.015985
615.247039,0.015840
615.976913,0.015696
616.704080,0.015554
617.424248,0.015411
618.172138,0.015266
618.873771,0.015120
619.607578,0.014971
620.350003,0.014820
621.031522,0.014671
621.806198,0.014524
622.494662,0.014376
623.180684,0.014228
623.955897,0.014081
624.670482,0.013934
625.403250,0.013785
626.126475,0.013634
626.854692,0.013485
627.574849,0.013338
628.289564,0.013192
629.048355,0.013047
629.733472,0.012904
630.473885,0.012759
631.192805,0.012614
631.921359,0.012465
632.672867,0.012312
633.354352,0.012163
634.093005,0.012017
634.791552,0.011871
635.536294,0.011728
636.263320,0.011588
636.970741,0.011448
637.686181,0.011308
638.415051,0.011167
639.133686,0.011024
639.863235,0.010884
640.579200,0.010747
641.261828,0.010612
642.018535,0.010477
642.750639,0.010341
643.459560,0.010207
644.171351,0.010076
644.891687,0.009943
645.593182,0.009809
646.313225,0.009678
647.050055,0.009548
647.763492,0.009419
648.487921,0.009293
649.215387,0.009169
649.920681,0.009045
650.654945,0.008922
651.343030,0.008798
652.076366,0.008674
652.807343,0.008552
653.516332,0.008434
654.259655,0.008318
654.941945,0.008203
655.663365,0.008089
656.367293,0.007974
657.103809,0.007859
657.831475,0.007745
658.521369,0.007631
659.203237,0.007519
659.959703,0.007410
660.685485,0.007303
661.429788,0.007197
662.105860,0.007091
662.809058,0.006987
663.519669,0.006886
664.244266,0.006786
664.995301,0.006685
665.696090,0.006585
666.384138,0.006488
667.116707,0.006392
667.825990,0.006296
668.518600,0.006202
669.253021,0.006110
669.947007,0.006018
670.665001,0.005925
671.384092,0.005834
672.132049,0.005745
672.798808,0.005658
673.531911,0.005573
674.241666,0.005489
674.962834,0.005404
675.677738,0.005321
676.387505,0.005239
677.085637,0.005156
677.801678,0.005075
678.507291,0.004995
679.247364,0.004917
679.915176,0.004840
680.638298,0.004765
681.345186,0.004690
682.021119,0.004617
682.815666,0.004544
683.484346,0.004471
684.186814,0.004399
684.905243,0.004327
685.612756,0.004259
686.346383,0.004192
687.022973,0.004127
687.735437,0.004061
688.447261,0.003998
689.153721,0.003935
689.902449,0.003870
690.561037,0.003807
691.257815,0.003745
691.978040,0.003684
692.688274,0.003625
693.437583,0.003567
694.083997,0.003510
694.812600,0.003455
695.522593,0.003400
696.206655,0.003344
696.954694,0.003290
697.634959,0.003238
698.343645,0.003187
699.033704,0.003137
699.750679,0.003088
700.487433,0.003040
701.149529,0.002992
701.872055,0.002944
702.573148,0.002897
703.273966,0.002850
704.014241,0.002805
704.691136,0.002761
705.388569,0.002717
706.089915,0.002675
706.785914,0.002633
707.526262,0.002591
708.207180,0.002549
708.843766,0.002508
709.587545,0.002467
710.309521,0.002428
711.009586,0.002388
711.708477,0.002349
712.411041,0.002311
713.129262,0.002274
713.808666,0.002237
714.505384,0.002201
715.185405,0.002165
715.891799,0.002130
716.628947,0.002096
717.334112,0.002063
718.027365,0.002030
718.727253,0.001998
719.428605,0.001967
720.108678,0.001936
720.809848,0.001905
721.516014,0.001874
722.207563,0.001844
722.910180,0.001816
723.612755,0.001788
724.326769,0.001761
725.012848,0.001733
725.728291,0.001707
726.415861,0.001680
727.060346,0.001653
727.810850,0.001626
728.507477,0.001600
729.198513,0.001575
729.896644,0.001549
730.601541,0.001525
731.264200,0.001501
731.935580,0.001478
732.669493,0.001455
733.334475,0.001433
734.072848,0.001410
734.770295,0.001388
735.427159,0.001366
736.157913,0.001346
736.855354,0.001325
737.555336,0.001305
738.239911,0.001285
738.924778,0.001266
739.637458,0.001246
740.307632,0.001227
741.027692,0.001209
741.701139,0.001191
742.408003,0.001174
743.091282,0.001156
743.792954,0.001139
744.466871,0.001123
745.170848,0.001106
745.872315,0.001090
746.556627,0.001073
747.239303,0.001058
747.931263,0.001043
748.631869,0.001029
749.332511,0.001015
750.015411,0.001001
750.700104,0.000988
751.389966,0.000974
752.081876,0.000962
752.785230,0.000949
753.470649,0.000937
754.162141,0.000925
754.852378,0.000915
755.570003,0.000904
756.227492,0.000892
756.913660,0.000879
757.606296,0.000866
758.286973,0.000852
759.005860,0.000838
759.633682,0.000825
760.354629,0.000812
761.031244,0.000800
761.732938,0.000788
762.431305,0.000776
763.097817,0.000764
763.751920,0.000752
764.461166,0.000741
765.163535,0.000730
765.865818,0.000719
766.530895,0.000708
767.203230,0.000698
767.906280,0.000688
768.589031,0.000678
769.286463,0.000669
769.934616,0.000659
770.633062,0.000649
771.311916,0.000640
771.993498,0.000631
772.704935,0.000622
773.383400,0.000613
774.045731,0.000605
774.740589,0.000597
775.425262,0.000589
776.135051,0.000581
776.798762,0.000573
777.473312,0.000566
778.124877,0.000558
778.842673,0.000551
779.558624,0.000544
780.214337,0.000537
780.892235,0.000530
781.555957,0.000523
782.237253,0.000517
782.952393,0.000510
783.618521,0.000504
784.277796,0.000498
784.975716,0.000491
785.652646,0.000486
786.356458,0.000480
786.995651,0.000474
787.699659,0.000469
788.371702,0.000464
789.052645,0.000458
789.740819,0.000454
790.405328,0.000449
791.085380,0.000444
791.732484,0.000439
792.466767,0.000435
793.112010,0.000430
793.763579,0.000426
794.471370,0.000422
795.140663,0.000418
795.812751,0.000414
796.526722,0.000410
797.176946,0.000407
797.841576,0.000403
798.504459,0.000400
799.200575,0.000397
799.895495,0.000394
800.537171,0.000391
