Wavelength (nm),Intensity (uW)
351.773669,0.000117
352.385824,0.000118
353.066880,0.000118
353.896409,0.000118
354.695565,0.000119
355.434654,0.000119
356.166830,0.000119
357.002111,0.000119
357.722110,0.000119
358.578131,0.000120
359.255959,0.000120
360.036144,0.000120
360.864325,0.000120
361.607138,0.000120
362.506144,0.000120
363.134097,0.000120
363.923447,0.000120
364.724633,0.000120
365.495506,0.000120
366.308326,0.000120
366.982712,0.000119
367.783210,0.000119
368.595345,0.000120
369.352743,0.000120
370.199115,0.000120
370.823577,0.000120
371.655368,0.000120
372.441467,0.000120
373.204479,0.000120
374.080995,0.000120
374.679084,0.000120
375.511827,0.000120
376.298475,0.000120
377.063963,0.000120
377.891341,0.000120
378.538048,0.000120
379.359392,0.000120
380.132793,0.000120
380.886170,0.000120
381.743563,0.000120
382.386447,0.000120
383.216628,0.000120
383.993505,0.000120
384.757844,0.000120
385.601099,0.000120
386.234506,0.000120
387.005113,0.000120
387.832234,0.000121
388.616331,0.000121
389.427208,0.000120
390.072504,0.000121
390.874803,0.000121
391.646643,0.000121
392.439660,0.000121
393.295928,0.000121
393.904285,0.000121
394.724166,0.000121
395.519206,0.000121
396.274061,0.000121
397.086368,0.000121
397.769795,0.000121
398.556395,0.000121
399.332366,0.000121
400.111341,0.000121
400.993185,0.000121
401.582328,0.000121
402.392384,0.000121
403.196648,0.000121
403.957607,0.000121
404.786747,0.000121
405.421205,0.000121
406.223277,0.000121
406.994395,0.000121
407.782452,0.000121
408.606856,0.000121
409.235076,0.000121
410.049646,0.000121
410.853740,0.000121
411.608272,0.000121
412.433657,0.000121
413.076129,0.000121
413.906023,0.000121
414.669447,0.000121
415.424323,0.000121
416.282612,0.000121
416.898518,0.000121
417.730630,0.000121
418.518438,0.000121
419.242629,0.000121
420.087077,0.000121
420.718170,0.000122
421.498313,0.000122
422.310045,0.000122
423.077260,0.000122
423.905722,0.000122
424.537875,0.000122
425.320023,0.000122
426.141558,0.000122
426.904251,0.000122
427.702396,0.000122
428.344977,0.000122
429.193248,0.000122
429.952235,0.000122
430.716264,0.000122
431.520668,0.000123
432.166463,0.000123
432.993121,0.000123
433.763681,0.000123
434.508910,0.000124
435.342011,0.000124
435.977590,0.000124
436.805133,0.000124
437.580483,0.000125
438.266037,0.000125
439.139016,0.000125
440.203017,0.000126
440.540021,0.000126
441.333723,0.000126
442.135571,0.000127
442.959713,0.000127
443.595175,0.000128
444.367848,0.000128
445.163383,0.000128
445.889974,0.000128
446.685810,0.000128
447.396429,0.000129
448.228929,0.000129
448.966109,0.000129
449.733048,0.000129
450.590140,0.000129
451.182094,0.000130
451.980800,0.000130
452.774849,0.000130
453.520765,0.000130
454.356138,0.000131
454.973817,0.000131
455.767209,0.000131
456.567043,0.000132
457.296251,0.000133
458.152313,0.000134
458.770782,0.000135
459.556938,0.000138
460.355071,0.000143
461.103014,0.000150
461.955349,0.000160
462.548708,0.000176
463.331051,0.000201
464.148021,0.000239
464.877569,0.000294
465.716721,0.000370
466.343191,0.000470
467.167775,0.000595
467.928969,0.000746
468.674137,0.000921
469.512287,0.001119
470.112440,0.001335
470.891830,0.001564
471.710859,0.001798
472.458265,0.002029
473.244704,0.002243
473.902158,0.002434
474.702260,0.002603
475.479325,0.002746
476.232772,0.002865
477.054472,0.002962
477.678843,0.003038
478.486737,0.003095
479.226910,0.003135
479.978717,0.003164
480.814913,0.003181
481.446244,0.003191
482.231349,0.003193
483.012063,0.003190
483.715394,0.003182
484.496825,0.003173
485.209227,0.003163
486.034737,0.003155
486.771093,0.003151
487.532045,0.003151
488.337288,0.003158
488.977300,0.003172
489.743396,0.003196
490.554371,0.003232
491.307257,0.003281
492.101298,0.003345
492.741861,0.003422
493.506763,0.003514
494.317166,0.003621
495.062916,0.003742
495.864718,0.003879
496.495382,0.004029
497.280410,0.004196
498.079192,0.004378
498.825066,0.004570
499.621138,0.004770
500.251652,0.004984
501.043356,0.005213
501.822874,0.005455
502.556861,0.005709
503.352904,0.005968
504.003966,0.006244
504.785046,0.006537
505.572482,0.006834
506.292637,0.007130
507.058447,0.007427
507.751113,0.007728
508.566601,0.008034
509.320795,0.008343
510.051958,0.008654
510.872327,0.008978
511.494446,0.009312
512.314988,0.009645
513.063869,0.009976
513.792011,0.010303
514.554314,0.010631
515.232502,0.010958
516.017676,0.011282
516.804138,0.011600
517.522364,0.011916
518.355245,0.012233
518.971712,0.012539
519.752185,0.012833
520.535582,0.013123
521.266002,0.013409
522.084004,0.013691
522.705287,0.013967
523.506799,0.014233
524.255687,0.014497
525.011823,0.014756
525.841967,0.015005
526.423156,0.015243
527.246740,0.015475
527.973389,0.015699
528.689813,0.015917
529.567723,0.016127
530.166797,0.016334
530.927142,0.016537
531.761454,0.016733
532.419131,0.016921
533.260825,0.017101
533.882920,0.017273
534.643278,0.017439
535.447707,0.017599
536.184234,0.017752
536.990837,0.017901
537.609117,0.018046
538.409687,0.018183
539.126259,0.018316
539.896632,0.018443
540.710848,0.018565
541.324683,0.018683
542.127379,0.018796
542.865755,0.018904
543.589798,0.019010
544.420529,0.019110
545.038778,0.019205
545.808458,0.019294
546.581019,0.019378
547.321168,0.019457
548.143953,0.019533
548.732515,0.019607
549.514460,0.019677
550.286790,0.019744
551.015926,0.019810
551.824034,0.019871
552.440319,0.019928
553.210287,0.019982
553.997146,0.020032
554.685285,0.020077
555.535708,0.020120
556.132606,0.020160
556.895903,0.020198
557.683829,0.020236
558.436567,0.020271
559.196975,0.020302
559.835957,0.020328
560.637582,0.020353
561.372004,0.020375
562.123009,0.020395
562.887891,0.020411
563.531457,0.020423
564.333141,0.020435
565.080279,0.020445
565.762614,0.020452
566.530474,0.020455
567.217003,0.020455
567.953813,0.020453
568.696884,0.020449
569.428631,0.020441
570.196805,0.020431
570.901895,0.020417
571.636460,0.020401
572.394933,0.020383
573.164057,0.020362
574.339115,0.020337
574.580829,0.020311
575.346254,0.020282
576.103985,0.020251
576.857685,0.020216
577.642043,0.020177
578.259800,0.020137
579.021429,0.020095
579.787685,0.020050
580.514189,0.020002
581.312347,0.019951
581.932851,0.019898
582.693244,0.019844
583.422492,0.019785
584.185009,0.019726
584.986585,0.019663
585.598974,0.019597
586.367414,0.019530
587.129168,0.019460
587.798624,0.019388
588.688022,0.019314
589.273143,0.019237
590.059379,0.019156
590.797096,0.019072
591.513674,0.018988
592.340381,0.018904
592.930418,0.018818
593.680016,0.018730
594.452047,0.018638
595.191470,0.018547
595.890966,0.018452
596.586272,0.018353
597.386169,0.018253
598.065041,0.018150
598.837516,0.018047
599.787501,0.017944
600.239104,0.017839
601.069105,0.017730
601.754113,0.017621
602.478035,0.017511
603.411084,0.017396
603.892242,0.017281
604.677511,0.017164
605.408834,0.017047
606.112827,0.016927
606.921527,0.016805
607.520894,0.016680
608.315335,0.016555
609.050937,0.016428
609.769162,0.016298
610.568392,0.016168
611.172282,0.016040
611.960855,0.015913
612.679961,0.015786
613.404496,0.015657
614.196264,0.015524
614.805550,0.015390
615.564530,0.015254
616.316382,0.015118
617.033913,0.014980
617.848094,0.014841
618.436679,0.014705
619.218396,0.014571
619.953265,0.014436
620.670269,0.014298
621.467784,0.014159
622.069100,0.014017
622.845952,0.013874
623.589680,0.013733
624.289574,0.013592
625.281718,0.013452
625.679796,0.013311
626.466217,0.013171
627.167754,0.013033
627.919722,0.012891
628.907473,0.012747
629.303299,0.012607
630.076958,0.012467
630.753353,0.012328
631.492520,0.012190
632.316531,0.012053
632.913149,0.011916
633.710569,0.011778
634.403747,0.011639
635.158575,0.011496
636.155993,0.011355
636.538592,0.011216
637.321921,0.011079
638.030039,0.010944
638.747289,0.010812
639.472388,0.010680
640.146079,0.010548
640.865008,0.010415
641.632372,0.010280
642.346209,0.010148
643.413296,0.010019
643.732883,0.009891
644.484329,0.009764
645.220589,0.009636
645.943596,0.009508
646.994372,0.009384
647.319087,0.009259
648.100395,0.009133
648.833262,0.009009
649.533092,0.008888
650.327395,0.008766
650.929585,0.008646
651.707114,0.008528
652.391190,0.008411
653.137688,0.008295
654.171238,0.008178
654.507372,0.008061
655.287080,0.007946
656.000735,0.007835
656.705776,0.007726
657.514741,0.007618
658.097776,0.007510
658.881525,0.007403
659.535544,0.007295
660.248333,0.007186
661.095147,0.007078
661.670048,0.006974
662.442410,0.006873
663.170109,0.006773
663.881728,0.006673
664.618824,0.006574
665.254153,0.006477
666.008559,0.006382
666.741006,0.006287
667.442225,0.006192
668.127712,0.006098
668.815782,0.006007
669.587212,0.005916
670.309641,0.005827
671.007746,0.005738
671.786871,0.005652
672.376161,0.005565
673.107404,0.005477
673.843535,0.005393
674.542289,0.005310
675.336911,0.005228
675.933421,0.005149
676.705081,0.005071
677.407116,0.004991
678.120350,0.004913
678.851265,0.004836
679.495878,0.004758
680.229982,0.004682
680.969579,0.004608
681.672625,0.004535
682.445831,0.004462
683.047462,0.004392
683.810176,0.004322
685.235979,0.004186
685.986210,0.004117
686.589122,0.004050
687.368765,0.003983
688.761475,0.003858
689.508803,0.003796
690.133271,0.003734
690.885338,0.003675
691.613393,0.003616
692.330393,0.003556
693.046333,0.003496
693.664838,0.003438
694.437584,0.003381
695.154571,0.003326
695.812278,0.003272
696.604881,0.003219
697.207036,0.003167
697.959957,0.003115
698.643008,0.003064
699.383066,0.003013
700.150246,0.002965
700.726695,0.002917
701.462041,0.002870
702.189334,0.002825
702.865438,0.002780
703.678154,0.002735
704.238546,0.002690
704.964384,0.002645
705.727940,0.002602
706.407022,0.002560
707.153532,0.002519
707.764588,0.002479
708.493910,0.002439
709.233197,0.002399
709.913798,0.002360
710.694686,0.002320
711.277590,0.002282
712.042494,0.002244
712.717728,0.002207
713.446117,0.002170
714.199926,0.002134
714.784862,0.002099
715.500975,0.002065
716.255111,0.002030
716.937255,0.001996
717.689999,0.001963
718.288214,0.001930
719.034866,0.001898
719.742519,0.001867
720.452777,0.001837
721.201142,0.001807
721.786786,0.001778
722.537445,0.001749
723.251687,0.001719
723.919146,0.001691
724.662966,0.001663
725.282274,0.001637
726.024040,0.001611
726.736849,0.001585
727.413217,0.001560
728.201384,0.001535
728.767431,0.001511
729.470108,0.001486
730.215341,0.001461
730.893895,0.001437
731.675332,0.001413
732.248434,0.001390
732.999528,0.001368
733.699575,0.001346
734.406173,0.001325
735.134114,0.001304
735.718514,0.001283
736.481000,0.001262
737.180195,0.001241
737.862407,0.001222
738.595181,0.001203
739.196659,0.001183
739.941520,0.001165
740.620934,0.001146
741.329219,0.001128
742.067711,0.001110
742.665782,0.001092
743.389330,0.001075
744.119498,0.001059
744.801120,0.001043
745.537904,0.001027
746.126262,0.001011
746.835554,0.000996
747.565494,0.000980
748.244344,0.000965
749.021875,0.000950
749.571329,0.000935
750.303702,0.000921
751.027064,0.000909
751.702407,0.000896
752.405661,0.000883
753.036249,0.000870
753.777357,0.000858
754.456156,0.000846
755.167843,0.000835
755.901208,0.000824
756.483624,0.000814
757.223984,0.000804
757.922876,0.000793
758.581117,0.000783
759.357525,0.000772
759.922115,0.000759
760.647571,0.000746
761.352778,0.000734
762.033918,0.000722
762.764233,0.000710
763.356016,0.000699
764.076607,0.000688
764.791423,0.000677
765.428522,0.000666
766.220672,0.000655
766.797407,0.000644
767.531876,0.000634
768.221252,0.000624
768.892257,0.000615
769.657304,0.000605
770.217721,0.000596
770.926993,0.000587
771.641786,0.000578
772.300010,0.000570
773.047693,0.000561
773.633474,0.000553
774.334257,0.000544
775.057328,0.000536
775.744866,0.000528
776.476794,0.000521
777.049363,0.000513
777.753748,0.000506
778.479531,0.000499
779.158106,0.000492
779.893547,0.000485
780.442723,0.000478
781.170877,0.000472
781.872758,0.000465
782.576325,0.000459
783.248616,0.000453
783.858048,0.000446
784.578050,0.000440
785.297341,0.000434
785.968589,0.000429
786.701965,0.000423
787.259061,0.000418
787.995546,0.000413
788.687700,0.000408
789.335159,0.000403
790.096151,0.000397
790.656591,0.000392
791.395114,0.000387
792.054977,0.000383
792.746748,0.000378
793.462905,0.000374
794.032865,0.000369
794.746605,0.000365
795.443359,0.000361
796.111291,0.000357
796.832481,0.000353
797.430228,0.000349
798.159664,0.000345
798.836083,0.000341
799.493952,0.000337
800.230026,0.000333
0.000000,0.000000
